sample14,,
Wavelength (nm),Abs,
800.0026855,0.003022037679,
798.996582,0.003593535628,
797.9901123,0.00320000574,
796.9830933,0.003715914441,
796.0105591,0.00356881856,
795.0028687,0.00298846513,
793.994751,0.003016694216,
792.9862061,0.002939857077,
792.0120239,0.002384158317,
791.0027466,0.002979733516,
789.993042,0.002406413434,
788.9829102,0.002005219227,
788.0072021,0.001806736575,
786.9962769,0.002109306632,
785.9850464,0.001297736773,
785.0081787,0.00211695442,
783.9961548,0.002158107935,
782.9836426,0.002307823626,
782.0057983,0.001552201109,
780.9924316,0.002632436808,
780.0137329,0.001783238724,
778.9997559,0.002899280749,
777.9853516,0.0008641043678,
777.0054932,0.001816484379,
775.9902954,0.001635054941,
775.0097046,0.001404745271,
773.9937744,0.001347745187,
773.0123901,0.00144385756,
771.9956665,0.001379996771,
771.0136719,0.001334398752,
769.9961548,0.002319248393,
769.0133057,0.001665430842,
767.9949951,0.001798522542,
767.0114746,0.002328174887,
765.9924316,0.002515517874,
765.0082397,0.002096144948,
763.9884033,0.001964210067,
763.003418,0.001557162963,
761.9827881,0.002395611024,
760.9971313,0.002267670585,
760.0109863,0.002182276454,
758.9892578,0.001407082542,
758.0025024,0.002110399306,
757.0152588,0.002322162967,
755.9924316,0.00236284174,
755.0045166,0.002639781218,
754.0162354,0.002496589907,
752.9923706,0.002424868755,
752.0032959,0.003075920977,
751.013916,0.003340011695,
749.9889526,0.003300910816,
748.9988403,0.003294155234,
748.0084839,0.004069095943,
747.0177002,0.00433264114,
745.9911499,0.004363938235,
744.9996338,0.004883955233,
744.0077515,0.005755716935,
743.0155029,0.005547752138,
741.9875488,0.006595878862,
740.9946289,0.007017622236,
740.0014038,0.007871513255,
739.0077515,0.008047471754,
738.013855,0.008790610358,
736.9840088,0.01009367313,
735.9893188,0.01044372935,
734.9943237,0.01176637132,
733.9989014,0.01267102174,
733.0031738,0.01397456974,
732.0071411,0.01555910986,
731.0107422,0.01709409058,
730.0140381,0.01843687706,
729.0169067,0.02076416276,
727.9838257,0.02270113677,
726.986084,0.02458216436,
725.987854,0.02710917965,
724.9894409,0.02951841429,
723.9905396,0.03209098056,
722.991394,0.03528926894,
721.9919434,0.03794985637,
720.9921265,0.04150467739,
719.9918823,0.04440465197,
718.991333,0.04805412516,
717.9904785,0.05163037777,
716.9892578,0.05547926947,
715.987793,0.05933666602,
714.9858398,0.06337010115,
713.9836426,0.06730341911,
713.0168457,0.07092898339,
712.0140381,0.07508452237,
711.0108032,0.07876812667,
710.0072632,0.08299361169,
709.0033569,0.08622665703,
707.9991455,0.08929628879,
706.9945679,0.09290844202,
705.9896851,0.09586724639,
704.9844971,0.09830958396,
704.0147705,0.1004868001,
703.0089111,0.1029912904,
702.0027466,0.1046375558,
700.9961548,0.1060591266,
699.9893188,0.1074375585,
698.9821167,0.1080316752,
698.0105591,0.1092342362,
697.0026855,0.1096321195,
695.9945679,0.1095992625,
694.9860229,0.1087228507,
694.0132446,0.1081286222,
693.0040283,0.1077119112,
691.9946289,0.1061555371,
690.9847412,0.104388319,
690.0107422,0.1030598432,
689.0002441,0.1012915522,
687.989502,0.09867630154,
687.0144653,0.0968291238,
686.0031128,0.09426167607,
684.991333,0.09130289406,
684.0154419,0.08975956589,
683.0031128,0.08713271469,
681.9903564,0.08426675946,
681.0135498,0.08161412179,
680.0002441,0.07937034965,
678.9866333,0.07639937848,
678.0087891,0.07364311814,
676.9945068,0.0710837245,
676.0162354,0.06779524684,
675.0012817,0.06583162397,
673.986084,0.06357338279,
673.0068359,0.06074703485,
671.9909668,0.05870446935,
671.0111084,0.05672210827,
669.9946289,0.05441578105,
669.0141602,0.05228765309,
667.9970703,0.05071707815,
667.0159912,0.04912329093,
665.998291,0.04793397337,
665.0166626,0.04617512971,
663.998291,0.04555546492,
663.0160522,0.04389248788,
661.9970703,0.04273621365,
661.0142212,0.04231525958,
659.9946899,0.04145341367,
659.0112915,0.04109137505,
657.9910889,0.04113639146,
657.007019,0.04120085388,
655.9863281,0.04087818414,
655.001709,0.04079142213,
654.0167236,0.04171999544,
652.9951172,0.04174245149,
652.0096436,0.04149385542,
650.9873047,0.04219622537,
650.0012817,0.04285044968,
649.0148926,0.04334671423,
647.9916992,0.04371330142,
647.0048218,0.0446501337,
646.0175171,0.0452905111,
644.9934692,0.04541691765,
644.0057373,0.04610716179,
643.0175781,0.04705232009,
641.9926147,0.04746798798,
641.0039673,0.04842919856,
640.0150146,0.04830092564,
638.9891968,0.04866421968,
637.9996948,0.04891348258,
637.0098267,0.04876505584,
635.9830933,0.04913442209,
634.9927979,0.04822640494,
634.0021362,0.04865382612,
633.0112915,0.04803050309,
631.9833374,0.04779674858,
630.9918213,0.04729976133,
630.0001221,0.04675989971,
629.0080566,0.04594115913,
628.0157471,0.04483762756,
626.9863892,0.04422230273,
625.9935303,0.04310179874,
625.0004272,0.04195287079,
624.006958,0.04168261215,
623.0132446,0.04031769186,
621.9824829,0.03932482377,
620.9881592,0.03789092973,
619.9937134,0.03726615757,
618.9989014,0.03569034114,
618.0038452,0.03432157263,
617.0084839,0.03340153769,
616.0128784,0.03239717335,
615.0170288,0.03163229674,
613.9839478,0.03014902957,
612.9874878,0.02902333066,
611.9908447,0.02827108465,
610.9938354,0.02780554071,
609.9966431,0.02683665231,
608.9991455,0.0258310996,
608.0013428,0.02512077987,
607.0032959,0.02425230853,
606.0050049,0.02357651107,
605.0064697,0.02276106551,
604.0075684,0.02254436165,
603.0085449,0.0219333414,
602.0090942,0.02161245607,
601.0095215,0.02122849412,
600.0095825,0.0207336694,
599.0094604,0.02046117745,
598.0090332,0.02008143067,
597.0083008,0.02000986412,
596.0073853,0.01974695548,
595.0061646,0.01971826889,
594.0047607,0.0195224639,
593.0029907,0.01955904439,
592.0009766,0.01894047298,
590.9987183,0.01954561472,
589.9962158,0.0191707518,
588.9934692,0.01938764565,
587.9904785,0.01911491528,
586.9871826,0.01910322905,
585.9835815,0.01859009638,
585.0169678,0.01849943213,
584.0129395,0.01851666719,
583.008667,0.01823414303,
582.0040283,0.018002823,
580.9992676,0.01719752327,
579.9942017,0.0174797494,
578.9888916,0.017191194,
577.9832764,0.01650926657,
577.0147095,0.01628101245,
576.008606,0.01591454074,
575.0023193,0.01533105969,
573.9956665,0.01510527357,
572.9888916,0.01499697939,
571.9817505,0.01453179121,
571.0117798,0.01422635559,
570.0042114,0.01406496204,
568.9963379,0.01336600445,
567.9882813,0.01269063819,
567.017334,0.01266976912,
566.008728,0.01206419896,
564.999939,0.01202717889,
563.9908447,0.0115216421,
562.9815674,0.01063251123,
562.0093994,0.01073019672,
560.9996338,0.01056243107,
559.989502,0.01039759349,
559.0166626,0.009989111684,
558.0061035,0.009697521105,
556.9953613,0.009330742061,
555.984314,0.009223296307,
555.0105591,0.008808678016,
553.9990234,0.008681449108,
552.9873047,0.008779489435,
552.0128174,0.008226614445,
551.0006104,0.008315158077,
549.9881592,0.008076927625,
549.0129395,0.007900825702,
548.000061,0.007743794005,
546.9868774,0.007683716249,
546.0110474,0.007600938901,
544.9973145,0.007533321623,
543.9835205,0.007445015945,
543.006897,0.007467479445,
541.9925537,0.007345565595,
541.015564,0.007248059381,
540.0007935,0.007270696573,
538.9856567,0.007120102644,
538.0079956,0.007065873127,
536.9924927,0.006872060243,
536.0143433,0.007037301082,
534.9984131,0.006945098285,
533.9821777,0.006896255538,
533.003418,0.006880870555,
531.9866943,0.006592882797,
531.0074463,0.006550833583,
529.9903564,0.00646842923,
529.0106201,0.006637905724,
527.993103,0.006383676082,
527.0129395,0.006446070038,
525.9949341,0.006469637621,
525.0143433,0.006488713436,
523.9958496,0.006105232518,
523.0148315,0.006276852451,
521.9959106,0.006198753603,
521.0145264,0.006144455168,
519.9950562,0.00598658761,
519.0132446,0.006113423035,
517.9934082,0.005846827757,
517.0111084,0.005916885566,
515.9908447,0.006137366407,
515.0081177,0.006070396863,
513.9874268,0.006017243024,
513.0042725,0.006051234435,
511.9830627,0.006094390061,
510.9994812,0.005745198112,
510.015686,0.005839901511,
508.9938965,0.00598485535,
508.0096741,0.005683429539,
506.9874268,0.00588673586,
506.0028076,0.005749447737,
505.0180054,0.005683140829,
503.9950256,0.005730273202,
503.0098267,0.005787379108,
501.9864197,0.005879625212,
501.0007935,0.005516238511,
500.0149536,0.005727676675,
498.9909058,0.005864433013,
498.0046692,0.00573596498,
497.0181274,0.005656547379,
495.9935303,0.005536976736,
495.0066528,0.005670027807,
493.9815369,0.005621407181,
492.9942627,0.005759100895,
492.0067139,0.005575099494,
490.9810181,0.005704253912,
489.9931335,0.005656127818,
489.0050049,0.005413271021,
488.0166931,0.00552187534,
486.9901733,0.005567652639,
486.0014343,0.005668323021,
485.0125427,0.005598803051,
483.9853516,0.005526227411,
482.9960022,0.005472432356,
482.0065308,0.005615297239,
481.0168152,0.005593899637,
479.9888611,0.005481607281,
478.9987488,0.005693789106,
478.0083923,0.005622324999,
477.0179443,0.005565187894,
475.9891663,0.005653216969,
474.99823,0.005541066639,
474.0071411,0.005484517198,
473.0158691,0.005501504987,
471.9862061,0.005430911202,
470.9945679,0.005641599186,
470.0027161,0.005667405203,
469.0106201,0.005657019559,
468.0183716,0.005764373112,
466.987793,0.005552655086,
465.9951172,0.005756319966,
465.0023499,0.005801624153,
464.0093384,0.005763691384,
463.0160828,0.006008529104,
461.9845581,0.006054856814,
460.9909363,0.005921320524,
459.9971619,0.005944492295,
459.0032349,0.006067929324,
458.0090637,0.006141908467,
457.014679,0.005995038431,
455.9819336,0.006120485254,
454.9872131,0.006036902778,
453.9922791,0.005657649133,
452.9972229,0.006081448402,
452.0019226,0.00600900175,
451.0065002,0.005828619935,
450.0108337,0.005921084434,
449.0150452,0.006030130666,
448.019043,0.005954097025,
446.9845581,0.005797085818,
445.9881897,0.00595155172,
444.9916077,0.005771298427,
443.9948425,0.00562431803,
442.9979858,0.005637429655,
442.0008545,0.00556238275,
441.0035706,0.005556404591,
440.0061646,0.005587082356,
439.0084839,0.005498935934,
438.0106812,0.005409706384,
437.0126953,0.005301653873,
436.0145264,0.005644982215,
435.0162048,0.005578848999,
434.0176086,0.005710601341,
433.0189514,0.005799341947,
431.9816589,0.006039396394,
430.9825745,0.006076382007,
429.9833679,0.006386250723,
428.9839783,0.006539717317,
427.984314,0.006729964633,
426.9845886,0.006871875841,
425.9846497,0.007101604249,
424.9845276,0.007459262852,
423.9842529,0.007685771678,
422.9837646,0.00773465028,
421.9831543,0.007864923216,
420.9823608,0.008150300942,
419.9814148,0.008113533258,
419.0187988,0.008073130623,
418.0174866,0.008271200582,
417.0159607,0.008166390471,
416.0143433,0.008275025524,
415.0125732,0.008235240355,
414.0105896,0.008265343495,
413.0083923,0.007836719975,
412.006073,0.008214875124,
411.0036316,0.008073947392,
410.0009766,0.008068752475,
408.9981384,0.007780608721,
407.9951477,0.007763110101,
406.9920349,0.007834215648,
405.9886475,0.007808281574,
404.985199,0.007686561905,
403.9815369,0.007760448381,
403.0163269,0.007785721682,
402.0123596,0.007667249069,
401.0082092,0.007840041071,
400.0039368,0.007641324308,
398.9994507,0.007950150408,
397.994812,0.007833741605,
396.9900513,0.008004068397,
395.9851074,0.007782901637,
395.0186462,0.007934357971,
394.0133972,0.007823304273,
393.0079651,0.007804248948,
392.0023804,0.007874465548,
390.9966431,0.007885773666,
389.9907532,0.007663139142,
388.9846802,0.007801692467,
388.0171509,0.007633130997,
387.0107727,0.007583605591,
386.0042419,0.00752715813,
384.9975586,0.007547887042,
383.9907227,0.007497133221,
382.9837036,0.00741599733,
382.0152893,0.00734732952,
381.0080261,0.007364206016,
380.0005493,0.007474220823,
378.9929504,0.007323082536,
377.9851685,0.007469928358,
377.0159912,0.00728801731,
376.0079346,0.007339062635,
374.9997253,0.0072325035,
373.991333,0.007311788853,
372.9828186,0.007381635718,
372.0129395,0.00726906443,
371.0041199,0.007215237711,
369.9951172,0.00758081302,
368.9859924,0.007283016108,
368.0155334,0.007135523017,
367.0061035,0.007546965498,
365.9965515,0.007575650234,
364.9868164,0.007662374992,
364.0157776,0.007467031479,
363.0057678,0.007300416473,
361.9956055,0.007602703758,
360.9852905,0.00755634252,
360.0137329,0.007443857379,
359.0031128,0.007569301873,
357.9924011,0.007666458841,
356.9815063,0.007551337592,
356.0093384,0.007809441071,
354.9981689,0.007384400349,
353.9868774,0.007874386385,
353.0143127,0.007710407954,
352.0027161,0.008173433132,
350.9909973,0.007828944363,
350.0180054,0.007948410697,
349.0059814,0.008242443204,
347.9938049,0.008250199258,
346.9815063,0.008327717893,
346.0080261,0.008546442725,
344.9954529,0.00866832491,
343.9827271,0.009070253,
343.0088196,0.009189425968,
341.9957886,0.00948157534,
340.982666,0.009748108685,
340.0083923,0.009893075563,
338.9949951,0.01073704194,
337.9814453,0.01087631471,
337.0067139,0.01161838416,
335.9928894,0.0122321723,
335.0179749,0.01327228826,
334.0039063,0.01424122788,
332.9896545,0.01518319361,
332.0143127,0.01654688455,
330.9998474,0.01800193265,
329.985199,0.01921360753,
329.009491,0.021035593,
327.9945984,0.02268597297,
327.0186157,0.02404889651,
326.003479,0.02539964207,
324.9882202,0.02700220235,
324.0118713,0.0280222632,
322.9963684,0.02846236154,
321.9806519,0.02961872332,
321.0039368,0.03019972704,
319.9880066,0.03064162098,
319.0110474,0.03098568134,
317.994873,0.03133763745,
317.0176392,0.03184522688,
316.0012207,0.03173368052,
314.9846497,0.03220164403,
314.0070801,0.03235254809,
312.9902344,0.03286872804,
312.0124207,0.03310346603,
310.9953613,0.03344875574,
310.0173035,0.0336599499,
308.9999695,0.0340888612,
307.9825745,0.03442479298,
307.0041504,0.03456214815,
305.9864502,0.0348896347,
305.007782,0.03509364277,
303.9898987,0.03537379205,
303.0109863,0.03553560376,
301.9927979,0.03575203195,
301.0136414,0.03592970595,
299.9953003,0.03634304926,
299.0159302,0.03652600572,
297.9972839,0.03695984185,
297.0176697,0.0373673141,
295.9987793,0.03806888685,
295.0189819,0.03873590752,
293.9998779,0.03958049417,
292.9806213,0.04033448175,
292.0004578,0.04145625979,
290.9810181,0.04265698791,
290.0006104,0.0436957255,
288.9809265,0.04519714415,
288.0003052,0.0461865887,
286.9803772,0.04769812897,
285.9995728,0.04919837043,
285.0186462,0.05079121143,
283.9983521,0.05241184682,
283.0172119,0.05424011871,
281.9967041,0.05591754243,
281.0153503,0.05782769993,
279.9946289,0.05964002758,
279.0130615,0.06136984006,
277.9920959,0.06308253855,
277.0102844,0.06447640061,
275.9891052,0.06655091792,
275.0071411,0.0670715943,
273.9857178,0.06875743717,
273.003479,0.06906168908,
271.9819031,0.0698371008,
270.9994812,0.06973918527,
270.0169373,0.07021704316,
268.9950256,0.06892232597,
268.0122986,0.06950046867,
266.9901733,0.06929691881,
266.0072021,0.06870491803,
264.9848328,0.06701860577,
264.001709,0.06945942342,
263.0184326,0.07065799832,
261.9957886,0.06393993646,
261.0123596,0.06492316723,
259.9894409,0.06577336788,
259.0057983,0.05898040533,
257.9826965,0.05568553507,
256.9988708,0.01153437514,
256.0149231,0.09755598754,
254.9915466,0.003478601808,
254.0074005,-0.04988647625,
252.9838104,-0.02086590417,
251.9994507,-0.0621782355,
251.0150604,-0.007420853712,
249.9911652,0.05410709977,

sample14,
sample14
Collection Time: 21/05/2023 5:41:10 PM
Operator Name  :
Scan Version 5.0.0.999
Parameter List :
Instrument  Cary 60
Instrument Version  2.00
Start (nm)  800.0
Stop (nm)  250.0
X Mode  Nanometers
Y Mode  Abs
UV-Vis Scan Rate (nm/min)  600.000
UV-Vis Data Interval (nm)  1.00
UV-Vis Ave. Time (sec)  0.1000
Beam Mode  Dual Beam
Baseline Correction  On
Baseline Type  Baseline correction
Baseline File Name
Baseline Std Ref File Name
Cycle Mode  Off
Method Log     :
Method Name    :
Date/Time stamp: 21/05/2023 12:42:22 PM
Method Modifications:
UVVIS SAT Changed: 21/05/2023 2:04:27 PM, Old:0.0125, New:0.1000
Common SAT Changed: 21/05/2023 2:04:27 PM, Old:0.0125, New:0.1000
Common Interval nm Changed: 21/05/2023 2:04:37 PM, Old:     5.00, New:     1.00
Baseline Correction Changed: 21/05/2023 2:04:37 PM, Old:0, New:1
Storage Changed: 21/05/2023 2:04:37 PM, Old:1, New:0
X Stop nm Changed: 21/05/2023 2:14:10 PM, Old:  200.0, New:  250.0
X Start nm Changed: 21/05/2023 2:14:26 PM, Old:  800.0, New:  500.0
X Start nm Changed: 21/05/2023 2:16:42 PM, Old:  500.0, New:  800.0
X Start nm Changed: 21/05/2023 2:56:54 PM, Old:  800.0, New:  550.0
X Start nm Changed: 21/05/2023 3:10:37 PM, Old:  550.0, New:  800.0
End Method Modifications
<Current Wavelength> , 261.0

