sample9,,
Wavelength (nm),Abs,
549.9881592,0.002229810925,
549.0129395,0.002245162614,
548.000061,0.002257886576,
546.9868774,0.002260488691,
546.0110474,0.002344596898,
544.9973145,0.002197548281,
543.9835205,0.002284324728,
543.006897,0.002309515141,
541.9925537,0.00221612514,
541.015564,0.002388010733,
540.0007935,0.002285209484,
538.9856567,0.002138155047,
538.0079956,0.002481750213,
536.9924927,0.002136750147,
536.0143433,0.002286614617,
534.9984131,0.002307849703,
533.9821777,0.002308266005,
533.003418,0.002317426493,
531.9866943,0.00237551704,
531.0074463,0.002184591955,
529.9903564,0.002256663749,
529.0106201,0.00220962055,
527.993103,0.002188572427,
527.0129395,0.002298481064,
525.9949341,0.0021628947,
525.0143433,0.002218310721,
523.9958496,0.002391628688,
523.0148315,0.002211571904,
521.9959106,0.00233465503,
521.0145264,0.001970346784,
519.9950562,0.002352535026,
519.0132446,0.002197236288,
517.9934082,0.002239490161,
517.0111084,0.002295280341,
515.9908447,0.002357792342,
515.0081177,0.002320939908,
513.9874268,0.002408469794,
513.0042725,0.002281878609,
511.9830627,0.002220782451,
510.9994812,0.002306886716,
510.015686,0.002122130943,
508.9938965,0.002005583374,
508.0096741,0.002206836594,
506.9874268,0.002389051719,
506.0028076,0.002591055818,
505.0180054,0.001990422141,
503.9950256,0.002094558207,
503.0098267,0.002358443104,
501.9864197,0.002375699347,
501.0007935,0.002334420802,
500.0149536,0.002175876638,
498.9909058,0.002278079279,
498.0046692,0.002289867494,
497.0181274,0.002142915502,
495.9935303,0.002156937262,
495.0066528,0.002304388443,
493.9815369,0.002116121817,
492.9942627,0.002337804297,
492.0067139,0.00233270321,
490.9810181,0.002122078789,
489.9931335,0.002260176465,
489.0050049,0.002323282184,
488.0166931,0.002245084615,
486.9901733,0.002148482483,
486.0014343,0.002211675979,
485.0125427,0.002262336202,
483.9853516,0.002141302684,
482.9960022,0.002229628852,
482.0065308,0.002228275873,
481.0168152,0.002267514588,
479.9888611,0.00217213016,
478.9987488,0.002294707811,
478.0083923,0.002103375969,
477.0179443,0.002193749882,
475.9891663,0.002172026085,
474.99823,0.002183551202,
474.0071411,0.002138180891,
473.0158691,0.00206253957,
471.9862061,0.002180143259,
470.9945679,0.002180299256,
470.0027161,0.002220886527,
469.0106201,0.00207003043,
468.0183716,0.002262726659,
466.987793,0.002124914201,
465.9951172,0.001940443646,
465.0023499,0.002231580438,
464.0093384,0.002212118357,
463.0160828,0.002235769527,
461.9845581,0.002321876818,
460.9909363,0.002153971698,
459.9971619,0.002094766358,
459.0032349,0.002247790573,
458.0090637,0.002288488206,
457.014679,0.002295124112,
455.9819336,0.002199005336,
454.9872131,0.002411228837,
453.9922791,0.002233453793,
452.9972229,0.002172208391,
452.0019226,0.002205978148,
451.0065002,0.002221797127,
450.0108337,0.002383143408,
449.0150452,0.002109306632,
448.019043,0.002238241257,
446.9845581,0.002353732241,
445.9881897,0.002103271894,
444.9916077,0.002334446879,
443.9948425,0.002232360886,
442.9979858,0.002169710817,
442.0008545,0.002260514768,
441.0035706,0.00241916813,
440.0061646,0.002248363104,
439.0084839,0.002089017769,
438.0106812,0.002377755474,
437.0126953,0.002157067414,
436.0145264,0.002363388194,
435.0162048,0.002342046471,
434.0176086,0.002290413948,
433.0189514,0.002202335512,
431.9816589,0.002412165981,
430.9825745,0.002103480045,
429.9833679,0.002237694804,
428.9839783,0.002050133422,
427.984314,0.002281566383,
426.9845886,0.002259838162,
425.9846497,0.002330647083,
424.9845276,0.002428643405,
423.9842529,0.002218570793,
422.9837646,0.002177853836,
421.9831543,0.002302514855,
420.9823608,0.002304076217,
419.9814148,0.002324166941,
419.0187988,0.002374111442,
418.0174866,0.002344284672,
417.0159607,0.002545851283,
416.0143433,0.002624754095,
415.0125732,0.002619753825,
414.0105896,0.002781951334,
413.0083923,0.002718258183,
412.006073,0.002821682952,
411.0036316,0.00313844136,
410.0009766,0.003310301108,
408.9981384,0.003531810828,
407.9951477,0.003875231137,
406.9920349,0.004138318822,
405.9886475,0.004283490125,
404.985199,0.004763732664,
403.9815369,0.005070151761,
403.0163269,0.005606800783,
402.0123596,0.006211909,
401.0082092,0.006487268489,
400.0039368,0.007256745826,
398.9994507,0.00779607892,
397.994812,0.008549320512,
396.9900513,0.009324261919,
395.9851074,0.0100624105,
395.0186462,0.01090596337,
394.0133972,0.01156789716,
393.0079651,0.01250855252,
392.0023804,0.01362617128,
390.9966431,0.01428172737,
389.9907532,0.01536337379,
388.9846802,0.01619485952,
388.0171509,0.01698013209,
387.0107727,0.01749821007,
386.0042419,0.01841907762,
384.9975586,0.01925565489,
383.9907227,0.01976345293,
382.9837036,0.0200678762,
382.0152893,0.02075096592,
381.0080261,0.02105170675,
380.0005493,0.02129833214,
378.9929504,0.02195896395,
377.9851685,0.02202518843,
377.0159912,0.02245404199,
376.0079346,0.02264899015,
374.9997253,0.02319356799,
373.991333,0.0235126745,
372.9828186,0.02385033667,
372.0129395,0.02395651117,
371.0041199,0.02426235564,
369.9951172,0.02430076152,
368.9859924,0.02465717494,
368.0155334,0.02477557771,
367.0061035,0.02475338057,
365.9965515,0.02489563264,
364.9868164,0.02445151843,
364.0157776,0.02456304431,
363.0057678,0.02450919524,
361.9956055,0.02412165143,
360.9852905,0.02386608906,
360.0137329,0.0234340094,
359.0031128,0.02304990776,
357.9924011,0.02242953517,
356.9815063,0.02222626656,
356.0093384,0.02173495851,
354.9981689,0.02134338208,
353.9868774,0.02100546286,
353.0143127,0.02049916796,
352.0027161,0.02017887868,
350.9909973,0.01961428858,
350.0180054,0.01919951104,
349.0059814,0.01914856769,
347.9938049,0.01869269647,
346.9815063,0.01795814373,
346.0080261,0.01759432442,
344.9954529,0.01701116934,
343.9827271,0.01653190702,
343.0088196,0.01591690257,
341.9957886,0.01584840938,
340.982666,0.01530113351,
340.0083923,0.01465324871,
338.9949951,0.01451316196,
337.9814453,0.01393786725,
337.0067139,0.01378932688,
335.9928894,0.01328592654,
335.0179749,0.01319156028,
334.0039063,0.01276868675,
332.9896545,0.01246931031,
332.0143127,0.01203369908,
330.9998474,0.01164885517,
329.985199,0.01137379184,
329.009491,0.01094848942,
327.9945984,0.01073526405,
327.0186157,0.01071658544,
326.003479,0.009926604107,
324.9882202,0.009909389541,
324.0118713,0.01000304427,
322.9963684,0.009926497936,
321.9806519,0.0096429158,
321.0039368,0.009426864795,
319.9880066,0.009688573889,
319.0110474,0.009448531084,
317.994873,0.009486972354,
317.0176392,0.009240113199,
316.0012207,0.009056270123,
314.9846497,0.009007137269,
314.0070801,0.009004361928,
312.9902344,0.00909020938,
312.0124207,0.009228372946,
310.9953613,0.009210947901,
310.0173035,0.009483400732,
308.9999695,0.009396840818,
307.9825745,0.009558281861,
307.0041504,0.009743634611,
305.9864502,0.009947314858,
305.007782,0.01005925797,
303.9898987,0.01044820994,
303.0109863,0.01075070724,
301.9927979,0.01096038241,
301.0136414,0.01136592682,
299.9953003,0.0116763236,
299.0159302,0.0119177606,
297.9972839,0.01233099028,
297.0176697,0.01258886047,
295.9987793,0.01301075891,
295.0189819,0.01327586453,
293.9998779,0.01363365073,
292.9806213,0.0139421979,
292.0004578,0.01413157117,
290.9810181,0.0143567184,
290.0006104,0.01476783119,
288.9809265,0.0151246516,
288.0003052,0.0154320607,
286.9803772,0.0157480631,
285.9995728,0.01616691612,
285.0186462,0.01652593724,
283.9983521,0.0169338882,
283.0172119,0.01730014384,
281.9967041,0.01773470826,
281.0153503,0.01834845915,
279.9946289,0.01887698844,
279.0130615,0.01939081214,
277.9920959,0.0199401509,
277.0102844,0.02069389448,
275.9891052,0.02178947255,
275.0071411,0.0222550109,
273.9857178,0.02363158576,
273.003479,0.02468024567,
271.9819031,0.02549719252,
270.9994812,0.02649173513,
270.0169373,0.02667851374,
268.9950256,0.02832504362,
268.0122986,0.02940843254,
266.9901733,0.02890442684,
266.0072021,0.03163555637,
264.9848328,0.03482890874,
264.001709,0.03423425928,
263.0184326,0.03724599257,
261.9957886,0.03722926602,
261.0123596,0.03590681776,
259.9894409,0.03147237748,
259.0057983,0.03910284489,
257.9826965,0.0512455143,
256.9988708,0.01816852205,
256.0149231,0.0929896906,
254.9915466,0.1661050916,
254.0074005,-0.1787828058,
252.9838104,0.003876954783,
251.9994507,-0.01484098192,
251.0150604,-0.02919074893,
249.9911652,0.08520110697,

sample9,
sample9
Collection Time: 21/05/2023 3:08:58 PM
Operator Name  :
Scan Version 5.0.0.999
Parameter List :
Instrument  Cary 60
Instrument Version  2.00
Start (nm)  550.0
Stop (nm)  250.0
X Mode  Nanometers
Y Mode  Abs
UV-Vis Scan Rate (nm/min)  600.000
UV-Vis Data Interval (nm)  1.00
UV-Vis Ave. Time (sec)  0.1000
Beam Mode  Dual Beam
Baseline Correction  On
Baseline Type  Baseline correction
Baseline File Name
Baseline Std Ref File Name
Cycle Mode  Off
Method Log     :
Method Name    :
Date/Time stamp: 21/05/2023 12:42:22 PM
Method Modifications:
UVVIS SAT Changed: 21/05/2023 2:04:27 PM, Old:0.0125, New:0.1000
Common SAT Changed: 21/05/2023 2:04:27 PM, Old:0.0125, New:0.1000
Common Interval nm Changed: 21/05/2023 2:04:37 PM, Old:     5.00, New:     1.00
Baseline Correction Changed: 21/05/2023 2:04:37 PM, Old:0, New:1
Storage Changed: 21/05/2023 2:04:37 PM, Old:1, New:0
X Stop nm Changed: 21/05/2023 2:14:10 PM, Old:  200.0, New:  250.0
X Start nm Changed: 21/05/2023 2:14:26 PM, Old:  800.0, New:  500.0
X Start nm Changed: 21/05/2023 2:16:42 PM, Old:  500.0, New:  800.0
X Start nm Changed: 21/05/2023 2:56:54 PM, Old:  800.0, New:  550.0
End Method Modifications
<Current Wavelength> , 254.0

