sample11,,
Wavelength (nm),Abs,
799.9914551,0.0002630552044,
798.9854126,-0.0001619641844,
798.0135498,0.0005715498119,
797.0066528,0.0006736090872,
795.9993896,0.0004570760066,
794.9916992,0.0003978942405,
793.9835205,5.151613368E-005,
793.0097656,-0.0001080863512,
792.0009766,-0.0009236122132,
790.9916992,0.000694557908,
790.0167847,-0.0003023981117,
789.0066528,0.0003760529216,
787.9962158,0.0001833890274,
786.9853516,-3.069967352E-005,
786.0089111,-0.0005654472043,
784.9971924,0.0004366827779,
783.9852295,2.588674033E-005,
783.0076294,-2.464274257E-005,
781.994812,9.441639122E-005,
781.0164795,0.000772917585,
780.0028687,-0.0002415007039,
778.9888306,0.0008955417434,
778.0093994,0.0003430727811,
776.9946289,0.001104897237,
776.0144043,0.0003386946046,
774.9989014,0.0005560239661,
773.9829102,0.0002747370163,
773.0015869,0.0003074787965,
771.9848633,-0.0002510730701,
771.0028687,0.0004605224822,
769.9853516,-3.365045632E-005,
769.0025635,-0.0002800476504,
767.984314,-0.0002674232528,
767.0007935,0.0006724683335,
766.0169067,0.0005134409294,
764.9974976,-0.0001200942861,
764.0128174,0.000390406407,
762.9926758,-0.0005461092805,
762.0073242,0.0005424944102,
760.9863892,-0.0002041922853,
760.0002441,0.0006044176989,
759.013855,-0.0004012024438,
757.9917603,-0.0001831822447,
757.0046387,0.0004653683282,
756.0170898,-0.0004040472559,
754.9938965,0.0002814716718,
754.0056763,-0.0001658973633,
753.0170898,0.0002664742351,
751.9927368,-0.0003533549898,
751.003479,-0.0003784432483,
750.0137329,0.0007022065693,
748.9882813,0.0002246188524,
747.9978638,-0.0003137798631,
747.0070801,-0.0002856353531,
746.0160522,-0.0003682529205,
744.9891357,0.0004936411278,
743.9972534,-5.751481149E-005,
743.0050659,-6.791947089E-005,
742.0125732,-0.0002704758954,
740.9841919,5.718586908E-005,
739.9909668,0.0002829740406,
738.9973755,-0.0001386748772,
738.003418,-0.0004728344793,
737.0090942,0.0008261593757,
736.0144653,-7.470048149E-005,
734.9839478,3.409315832E-005,
733.9885254,-0.0002560920257,
732.9928589,3.49992406E-005,
731.9968262,-1.242508733E-005,
731.0004272,0.0006664276007,
730.0037231,-0.0003376805689,
729.0066528,6.495275011E-005,
728.0091553,7.805320638E-005,
727.0114136,1.074280954E-005,
726.0133667,-4.141557292E-005,
725.0148926,-0.0001136245337,
724.0160522,0.0002875847567,
723.0169067,0.000139651369,
722.0174561,2.143411075E-005,
721.0175781,-0.0002228727681,
720.0174561,4.273983723E-005,
719.0169678,-0.00011678179,
718.0161133,0.0001451409917,
717.0148926,-0.0002923612483,
716.0133667,4.248095138E-005,
715.0115356,0.0001993418118,
714.0093384,-4.208854443E-005,
713.0068359,-0.0001193696808,
712.0039673,0.000219154128,
711.0007324,0.0004147358704,
709.9971313,0.0003860277648,
708.9932861,0.0004577756627,
707.9890747,-0.0001751609088,
706.9845581,0.0003473732795,
706.015564,0.0001635524532,
705.010376,0.0004482137738,
704.0048218,0.0003338242823,
702.9990234,6.360647967E-005,
701.9927979,0.0003888259234,
700.9862061,0.0005017527146,
700.0153198,0.0003705862619,
699.0081177,0.0002484987199,
698.0006714,0.000453448185,
696.9927979,0.0005382697564,
695.9846802,0.0003626584657,
695.012146,0.0002756954054,
694.0033569,0.0002013877529,
692.9942627,-0.0003716669744,
691.9847412,0.0006422136212,
691.0110474,-0.0003146076342,
690.0008545,0.0001147935545,
688.9904785,-5.352888184E-005,
688.0157471,0.0004463221412,
687.0046997,9.0221969E-005,
685.9932861,2.951100578E-005,
685.0177612,0.0002900196705,
684.0056763,0.000287092611,
682.9933472,0.0001991864265,
682.0169067,0.0005141407019,
681.0038452,9.369142208E-005,
679.9904785,0.0003264670668,
679.0130615,0.0001447784598,
677.9992065,0.0005889165914,
676.9848633,0.0001089159268,
676.0065308,-4.400592388E-006,
674.9916382,-0.00012780611,
674.0126953,-0.0001934286411,
672.9971924,0.000514037034,
672.0176392,0.0003831000358,
671.0015259,0.000367632776,
669.9850464,0.0006969691603,
669.0046387,0.0006570426049,
667.9874878,0.0005060288822,
667.0064697,3.681140879E-005,
665.9887085,-8.624348266E-005,
665.0070801,-0.0001714348182,
663.9887085,0.0002548185585,
663.0065308,0.0003101469483,
661.9876099,-0.0002012944024,
661.0047607,4.040987551E-005,
659.9852295,5.961947681E-005,
659.0018311,0.0006859241985,
658.0181274,0.0002649719245,
656.9976196,-0.0002388617868,
656.0133057,-5.948188118E-005,
654.9922485,0.0008327210671,
654.0073853,-9.318848242E-006,
652.9857178,1.993224032E-006,
652.0001831,8.053871716E-005,
651.0144653,-0.0003021394368,
649.9918823,-2.950900125E-005,
649.0054932,0.0005851839669,
647.9823608,0.0005209049559,
646.9954224,0.0001420854387,
646.0082397,-7.853092393E-005,
644.9841919,-0.0002603865287,
643.9963379,0.0007582661929,
643.0083008,0.0002540156129,
641.9833984,0.0003823745938,
640.9946899,0.0001706738403,
640.0057373,0.0004332365061,
639.0165405,0.0004295052204,
637.9904785,-0.0002294961159,
637.0006104,-8.231660104E-006,
636.0105591,-6.569361722E-005,
634.9835205,-5.829128713E-005,
633.9929199,-0.0006514234119,
633.0020752,0.0003034636611,
632.0108643,0.00010632669,
630.982666,0.0003182810324,
629.9909058,5.441571557E-005,
628.9989014,0.0003363371652,
628.0065918,0.0004120411468,
627.0140381,0.0002214073465,
625.984375,0.0002447949082,
624.991272,0.0001818352175,
623.9978638,0.0002263800125,
623.0042114,0.0001830005785,
622.0101929,0.0003016762785,
621.0159912,0.0001650803024,
619.9846191,-8.335201528E-006,
618.9898682,0.0002036408841,
617.994812,8.154156603E-006,
616.9994507,0.0005612337845,
616.0039063,0.0002049357863,
615.0079956,-0.0001379502937,
614.0119019,-6.072423639E-005,
613.0153809,-4.343448381E-005,
611.9818115,-0.0002022258705,
610.9849243,0.0001758789876,
609.9876099,-0.0001463346125,
608.9901733,8.693378186E-005,
607.9923706,-0.0002629218216,
606.9943237,0.000311804848,
605.9960327,0.0001579590171,
604.9974976,0.000203666772,
603.9987183,-2.070872597E-006,
602.9995728,0.0003770374169,
602.0002441,0.00028198972,
601.0006104,0.0002823264513,
600.0007324,7.287511835E-005,
599.0005493,0.000321415544,
598.0001831,0.0001256945689,
596.9995728,9.52708142E-005,
595.9985352,0.000130536675,
594.9973755,0.000279088621,
593.9959106,2.821579756E-006,
592.9942627,0.0001726419432,
591.9921875,5.436393621E-005,
590.9899902,-8.981502469E-005,
589.9874878,2.951100578E-005,
588.9846802,0.0003636947949,
587.9816895,0.0003525546344,
587.015564,-0.0001180757317,
586.012085,0.000183363125,
585.0082397,0.0002899937681,
584.0042114,0.0003415702085,
582.999939,7.277155237E-005,
581.9954224,0.0001263418962,
580.9905396,-9.209250857E-005,
579.9855347,0.0003116494336,
579.017395,0.0001086052143,
578.0119019,2.438526644E-005,
577.0060425,-2.060474253E-005,
576,0.0002104521263,
574.9936523,0.0002832330647,
573.9871216,-2.050120384E-005,
573.0175781,6.275212218E-005,
572.0105591,0.0001291902008,
571.0031738,0.0001610664767,
569.9956055,0.0001745064801,
568.987793,-1.485829125E-005,
568.0170898,0.0003013136156,
567.008728,-0.0001178687016,
566.0001831,9.902512102E-005,
564.991394,-4.214031287E-005,
563.9822998,0.000293568417,
563.010376,0.0001932040614,
562.0009155,0.0001543854596,
560.9910889,0.0002076033124,
560.0184937,0.0003045257181,
559.0081787,8.509551117E-005,
557.9976807,0.0001432247955,
556.9868774,0.0002228835947,
556.0133667,8.501784032E-005,
555.0021362,0.0001779507147,
553.9906616,3.823525913E-005,
553.0163574,6.635080354E-005,
552.0043945,0.0001626978919,
550.9921875,0.0003772705968,
550.0172729,0.000273260579,
549.0046387,0.0003234879696,
547.9916382,0.0002518399269,
547.0160522,0.0002316635364,
546.0026245,0.0003855095711,
544.9890137,0.0004910236457,
544.0126953,0.000411108369,
542.9986572,0.0004142176476,
541.9842529,0.0003692649771,
541.0072632,0.0004212654021,
539.9924316,0.0004431867565,
539.0150146,0.0004239083501,
537.9997559,0.000405952218,
536.9841919,0.0004406991648,
536.0061035,0.0006748276064,
534.9901123,0.0003260007943,
534.0115356,0.0005038000527,
532.9951172,0.0004591749748,
532.0161743,0.0006392323412,
530.9992065,0.0004410101101,
529.9821167,0.0006136200973,
529.0024414,0.0004477214243,
527.9849243,0.0003054841945,
527.0047607,0.0004427462409,
525.9866943,0.0003508965892,
525.0061646,0.0003453266399,
523.9876709,0.0004768741783,
523.0067139,0.0006069839583,
521.9877319,0.0002617860155,
521.0063477,0.000616886362,
519.9869995,0.0005913532223,
519.005127,0.0004267326731,
517.9852295,0.0006553574349,
517.0029907,0.0003885668411,
515.9827271,0.0004956366029,
515,0.0006937023136,
514.0170898,0.0006894243415,
512.9961548,0.0004319149884,
512.0128174,0.000343435473,
510.9914246,0.0004991092719,
510.0076904,0.0004522561794,
508.9857788,0.0002621486492,
508.0016174,0.0003176334139,
507.0172424,0.0004732720845,
505.994751,0.0005018045194,
505.0099487,0.00045002767,
503.98703,0.0004343247856,
503.0018005,0.0003187214315,
502.0163879,0.0003789805633,
500.9927368,0.0003432282247,
500.0069275,0.0003498862206,
498.9829102,0.0003338760871,
497.9966736,0.0002943196159,
497.0101929,0.0002906413283,
495.9855652,0.0003310782777,
494.9986877,0.000167100181,
494.0116272,0.0003726330178,
492.9862976,0.00020757741,
491.9988098,0.0001954830514,
491.0110474,0.0002425156854,
489.9852295,0.000144959733,
488.9971008,0.0002714474103,
488.0087891,0.0001802555198,
486.9822693,0.000204391923,
485.9936218,0.0001363627962,
485.0046692,0.0003363630676,
484.015564,0.0001129810626,
482.9881897,3.409315832E-005,
481.9987183,0.0001774586708,
481.0090332,0.0002212778491,
479.9809875,0.000133721609,
478.9908752,7.437675231E-005,
478.0006104,8.431878086E-005,
477.0100708,0.0001935925247,
475.9813538,0.0003148356918,
474.990448,0.0002010769676,
473.9993286,0.0001215516313,
473.0081177,0.0001951722807,
472.0166321,0.0002156577684,
470.9868469,8.253230772E-005,
469.9949951,4.434492803E-005,
469.0029602,0.0002154505783,
468.0106506,0.0001810842077,
467.01828,0.000251969439,
465.9874573,0.0003153019643,
464.9945984,0.0003385650925,
464.0016174,0.0002104780287,
463.0084229,0.0003663373645,
462.0150146,0.0002587037452,
460.9832458,0.0002766019898,
459.989502,0.0002394076437,
458.9955139,0.0003563111532,
458.0013733,0.0003611817374,
457.0070496,0.000300458807,
456.0125122,0.000369446323,
455.0178528,0.0004780144081,
453.9847107,0.0004115488555,
452.989624,0.0005476262886,
451.9943848,0.0004995239433,
450.9989319,0.0005405764678,
450.0032959,0.0004923971719,
449.0074768,0.0005966411554,
448.0114746,0.0005781594664,
447.0152588,0.0003755865619,
446.0189514,0.0008214910631,
444.9840393,0.0003580469638,
443.9873352,0.0004973729374,
442.990448,0.0006426543696,
441.9933167,0.000560819055,
440.9960632,0.0005088796606,
439.9986267,0.0008132178918,
439.0009766,0.0006077357102,
438.0031738,0.0004654719669,
437.0052185,0.0007533652242,
436.007019,0.0005444642156,
435.0086975,0.0006549685495,
434.0101624,0.0005017268122,
433.0114746,0.0005195313715,
432.0125427,0.0005290689296,
431.0135498,0.0006130238762,
430.0143433,0.0005621149903,
429.0149231,0.0005051736371,
428.0153198,0.0005138296983,
427.0155945,0.0007101405645,
426.0157166,0.000694920891,
425.015625,0.0007233382785,
424.0152893,0.000588890689,
423.0148315,0.0007168560405,
422.0142822,0.0008375710458,
421.0134583,0.000679779565,
420.0125122,0.0008002508548,
419.0113525,0.001068124897,
418.0100708,0.0009387070895,
417.0086365,0.001025232137,
416.006958,0.001339332201,
415.005127,0.00118597853,
414.0032349,0.001753530349,
413.0010681,0.001933475258,
411.9987183,0.002007429721,
410.9962463,0.002313965233,
409.9935913,0.003082125681,
408.9908142,0.003721919376,
407.987793,0.004190171603,
406.9846497,0.004712047521,
405.9813843,0.005669581704,
405.0164795,0.006489475723,
404.0128479,0.007629074156,
403.0090637,0.008567801677,
402.0050659,0.01012591831,
401.000946,0.01172945648,
399.9966431,0.0132299345,
398.992218,0.01514156442,
397.9875793,0.01729095913,
396.9827881,0.01951203868,
396.0164795,0.02196332067,
395.0113831,0.02467035316,
394.006134,0.02725473978,
393.0007324,0.03012425266,
391.9951477,0.03322070464,
390.9894104,0.03618149832,
389.9835205,0.0395976752,
389.0161743,0.04267446697,
388.0099792,0.04569693282,
387.0036011,0.04864601046,
385.9970703,0.05215082318,
384.9904175,0.05517891422,
383.983551,0.0578157492,
383.0152588,0.06011168286,
382.0081482,0.06240308285,
381.000824,0.06462062895,
379.9934082,0.06691078842,
378.9857788,0.06852559,
378.0167847,0.07010614872,
377.0088806,0.07142317295,
376.000824,0.07252086699,
374.9925842,0.07398822904,
373.9842224,0.07511354238,
373.0144958,0.07625828683,
372.0058289,0.07757311314,
370.9970093,0.07818849385,
369.9880066,0.0796494782,
369.0177307,0.08059070259,
368.0084839,0.08134109527,
366.999054,0.08229103684,
365.989502,0.08238904178,
365.0186157,0.08305083215,
364.008728,0.08313894272,
362.9987183,0.08334356546,
361.9885864,0.08264487237,
361.0171509,0.08211439848,
360.0066833,0.08118718863,
358.9961243,0.08027848601,
357.9853516,0.07894331217,
357.0133667,0.07784895599,
356.0023499,0.07612846792,
354.9911804,0.07471099496,
354.0187683,0.07324836403,
353.0072937,0.07130653411,
351.9957275,0.06986409426,
350.9839783,0.06796094775,
350.0110168,0.0667366758,
348.9990234,0.06442070007,
347.9868469,0.06332832575,
347.0134888,0.06177142635,
346.0010681,0.0599247925,
344.9884644,0.05786197633,
344.0147095,0.05628877133,
343.0018921,0.05432134122,
341.9888916,0.0524020642,
341.0147095,0.0509169586,
340.0014343,0.04865912721,
338.9880371,0.04695851728,
338.0135193,0.04548589885,
336.9998169,0.04428599402,
335.9860229,0.04284070805,
335.0110779,0.04176137596,
333.9969788,0.03981730342,
332.9827576,0.03862809762,
332.0074768,0.03652290627,
330.9929504,0.03440621495,
330.0173645,0.03248347342,
329.0026245,0.03084036522,
327.9877319,0.02951456234,
327.0117798,0.02842947096,
325.9966431,0.02690332197,
324.9813843,0.02558208071,
324.0050354,0.02450908534,
322.989502,0.0234280806,
322.0129089,0.02224735357,
320.9971313,0.02160848305,
319.9812012,0.02083199657,
319.0042114,0.02018018067,
317.9880371,0.01912887394,
317.0108643,0.01792765968,
315.9944153,0.01632199809,
315.0169373,0.0154384179,
314.0002747,0.01471199561,
312.9834595,0.01365632936,
312.0056458,0.01310284436,
310.9885864,0.01243939437,
310.010498,0.01172623783,
308.9932251,0.01135479286,
308.0149231,0.01078223158,
306.9973755,0.01056786813,
306.0188293,0.01028651744,
305.0010376,0.009932854213,
303.9831238,0.009525443427,
303.0042419,0.009225517511,
301.986084,0.009195638821,
301.006958,0.008820592426,
299.9885254,0.009017602541,
299.0091858,0.009245163761,
297.9905701,0.009374753572,
297.0109863,0.009291044436,
295.9920959,0.009641300887,
295.0122986,0.009640824981,
293.9931335,0.009852480143,
293.0131226,0.01016420778,
291.9938049,0.01015371457,
291.0135498,0.01003226265,
289.993927,0.01002611686,
289.0134583,0.009978410788,
287.9936523,0.009774636477,
287.01297,0.009712238796,
285.9928894,0.009706600569,
285.0119629,0.009537853301,
283.9916992,0.009540526196,
283.0105896,0.00955402106,
281.9900513,0.009556058794,
281.008728,0.009828304872,
279.9880066,0.01036259811,
279.0064087,0.01069305092,
277.9854736,0.01125755161,
277.0036621,0.01208070014,
275.9824829,0.01332855225,
275.0004883,0.01482892409,
274.0183716,0.01660927758,
272.9969177,0.01879696921,
272.0146179,0.02092863619,
270.9928589,0.02267089114,
270.0103455,0.02476321906,
268.9884338,0.02650370449,
268.0057068,0.02811700664,
266.9835205,0.03003439493,
266.0006104,0.03246785328,
265.0175781,0.0358024016,
263.9951477,0.04007524624,
263.0119019,0.04495196044,
261.9891968,0.05211935937,
261.0057678,0.06061477587,
259.9829102,0.06740951538,
258.9992676,0.07668630034,
258.015564,0.08639704436,
256.9923401,0.09572242945,
256.0083923,0.1045092121,
254.9849854,0.1135812327,
254.0008545,0.1225251183,
253.0166473,0.1326152831,
251.9929504,0.1434097141,
251.0085449,0.1590217054,
249.9846039,0.1737387329,
249.0000153,0.1825160682,
248.0153046,0.1882276237,
246.9911499,0.1904101223,
246.0062408,0.1906377226,
244.981842,0.1900408417,
243.9967346,0.1900113225,
243.0115814,0.190775305,
241.9869232,0.191597268,
241.0015564,0.1919581443,
240.0160828,0.1905977279,
238.9911346,0.186085552,
238.0054932,0.179706037,
236.9803467,0.1698288918,
235.9945221,0.1593919396,
235.0086212,0.1485733986,
233.9831848,0.1392427981,
232.9970856,0.1296664029,
232.0109253,0.1210219264,
230.9851685,0.1144606099,
229.9988251,0.1081531942,
229.0123901,0.1034611389,
227.9864197,0.09820338339,
226.9998016,0.09396240115,
226.013092,0.09041446447,
224.9868317,0.08812516928,
223.9999695,0.08524759859,
223.0130005,0.08336796612,
221.9864807,0.08475118876,
220.9993439,0.0882845372,
220.0121307,0.09263776988,
218.9853363,0.09908377379,
217.9979401,0.1025244072,
217.0104828,0.1052492261,
215.983429,0.1051808149,
214.9958038,0.1066294834,
214.0080872,0.1065126956,
212.9808197,0.1060460433,
211.9929047,0.1058717594,
211.0049744,0.1059998125,
210.016922,0.1061766893,
208.9893036,0.1075202823,
208.0010986,0.1103670299,
207.0128326,0.1178636774,
205.9849396,0.1253896654,
204.996521,0.1365250647,
204.0079956,0.1521784067,
203.0194092,0.1661476195,
201.9912109,0.1851405054,
201.0024567,0.20927535,
200.0136414,0.1893666536,

sample11,
sample11
Collection Time: 4/05/2023 1:33:03 PM
Operator Name  :
Scan Version 5.0.0.999
Parameter List :
Instrument  Cary 60
Instrument Version  2.00
Start (nm)  800.0
Stop (nm)  200.0
X Mode  Nanometers
Y Mode  Abs
UV-Vis Scan Rate (nm/min)  600.000
UV-Vis Data Interval (nm)  1.00
UV-Vis Ave. Time (sec)  0.1000
Beam Mode  Dual Beam
Baseline Correction  On
Baseline Type  Baseline correction
Baseline File Name
Baseline Std Ref File Name
Cycle Mode  Off
Method Log     :
Method Name    :
Date/Time stamp: 4/05/2023 12:06:35 PM
Method Modifications:
UVVIS SAT Changed: 4/05/2023 12:07:14 PM, Old:0.0125, New:0.1000
Common SAT Changed: 4/05/2023 12:07:14 PM, Old:0.0125, New:0.1000
Baseline Correction Changed: 4/05/2023 12:07:19 PM, Old:0, New:1
Storage Changed: 4/05/2023 12:07:19 PM, Old:1, New:0
End Method Modifications
<Current Wavelength> , 200.0

