sample3,,
Wavelength (nm),Abs,
799.9873657,-0.0005343716475,
799.0158081,0.0004289610661,
798.0092163,-0.0006515785353,
797.0020752,-0.0003413535014,
795.9946899,7.802731852E-005,
794.9867554,-0.001298980671,
794.0132446,-0.000621284591,
793.0046387,-0.0003310071188,
791.9956665,0.0006328032468,
790.986084,-0.0008309207624,
790.0110474,-7.459695189E-005,
789.0008545,0.0007004953222,
787.9902344,0.0005975224776,
787.0140991,-0.0004201330594,
786.0026245,0.001125114271,
784.9907837,7.631853805E-005,
784.0134277,0.0001842954225,
783.0009155,9.061033779E-005,
781.987854,-0.0002450192114,
781.0094604,-0.0002945341985,
779.9956055,-7.143939729E-005,
779.0164185,-0.00028072024,
778.0018921,-0.0004424763611,
776.9869385,0.0003368034668,
776.0065918,0.0005379586946,
774.9909058,-0.0003454402613,
774.0098267,0.0001970369049,
772.9932861,-0.0001563748665,
772.0114746,-6.559008762E-005,
770.9942017,-0.0004731447552,
770.0117188,9.089514788E-005,
768.9936523,8.771051944E-005,
768.0103149,0.0003712339676,
766.9915161,6.80336525E-005,
766.0075073,-6.248423597E-005,
764.987915,0.0002937497338,
764.0031738,-0.0001995349739,
762.9829102,-5.735951709E-005,
761.9973145,-0.0003859435674,
761.0114746,0.0002314563317,
759.9900513,-0.0001776966965,
759.003418,-1.273570979E-005,
758.0165405,-9.224779205E-005,
756.9938965,-0.0002100397251,
756.0062256,-0.0001068441343,
754.9828491,0.0002201382886,
753.9945068,0.0001412309211,
753.0056763,-0.0003224711982,
752.0166016,0.0001212668067,
750.9918213,-1.221800539E-005,
750.0018921,0.0001437167812,
749.0117188,-2.93019275E-005,
747.9857788,8.716680168E-005,
746.994812,4.975568299E-005,
746.0036011,-0.000261731795,
745.0119629,-0.0001455065358,
743.9845581,-0.0002293926373,
742.9922485,-0.0002797371999,
741.9995117,7.506995644E-006,
741.0065308,-7.376874419E-005,
740.0130615,0.0001944989344,
738.9838867,-0.0003431641089,
737.9898071,5.335425885E-005,
736.9953003,0.0005349781713,
736.0005493,-0.0001592730405,
735.0053711,0.0002081212733,
734.0099487,0.0001625166333,
733.0140381,0.0002270534023,
731.9822998,-0.0001425047521,
730.9857788,7.870047557E-005,
729.9888306,0.0001288535714,
728.9916382,-9.566399967E-005,
727.9940796,-0.0008564464515,
726.9962158,-3.489288429E-005,
725.9978638,0.0003255085903,
724.9992676,8.998894918E-005,
724.0003052,0.0002229094971,
723.0010376,-0.000458922761,
722.0014038,-0.0002580581931,
721.0014038,-3.002762014E-006,
720.0010986,-0.0001133139885,
719.0004272,9.767874144E-005,
717.9994507,7.634443318E-005,
716.9981079,-0.0002758567862,
715.99646,0.0001165801586,
714.9945068,0.0001146381983,
713.9921875,-0.0001495951292,
712.9894409,0.000221433249,
711.9863892,7.349648513E-005,
710.9830322,-2.868070624E-005,
710.0152588,-0.0004699901037,
709.0111694,-0.0002220965835,
708.0068359,-0.0002140242141,
707.0021973,-0.0001040491261,
705.9970703,-5.409830555E-005,
704.9917603,0.000197606656,
703.986084,-0.0001772309479,
703.0159912,-0.0005333375302,
702.0097046,0.000238915527,
701.0029907,-0.0001586520084,
699.9959717,-0.0001897544571,
698.9887085,0.0001779766026,
698.0169678,-0.0002121095895,
697.0090332,-0.000104514962,
696.0007324,-0.0003916851128,
694.9921265,-9.856258112E-005,
693.9831543,-1.553130278E-005,
693.0098877,0.0003257935459,
692.0002441,0.0001554730698,
690.9902954,0.0001174087374,
690.0162354,-0.0004557162756,
689.0056152,0.000344782602,
687.9946899,-0.0001834409923,
686.9834595,0.0004232346546,
686.0080566,-0.0003432158264,
684.9961548,-0.0005828713183,
683.9840088,-0.0002276333107,
683.0076904,0.000417249219,
681.994873,2.925212902E-005,
681.0178223,9.67207452E-005,
680.0044556,0.0003028678766,
678.9907227,7.551593444E-005,
678.0128174,0.000101691985,
676.9984131,-1.625608456E-005,
675.9837036,-0.000109173292,
675.0049438,0.0001292419765,
673.989502,0.000388022745,
673.0101318,0.0006626683753,
671.9942017,-0.0003458541178,
671.0141602,-0.0001745916379,
669.9975586,-0.0002347222908,
669.0170288,-0.0001888747211,
667.9998169,-0.0002053824719,
666.9822388,-0.0004994154442,
666.0007324,-0.0002541258582,
664.9825439,0.0001885943348,
664.0004883,-0.0002677336743,
663.0181274,0.0001877915201,
661.9990845,0.0001320126175,
661.0161133,-0.0004601122346,
659.9963989,-0.0001116059502,
659.0128784,-0.0002884292044,
657.9926147,0.0001077766574,
657.0084229,9.024786414E-005,
655.9874878,-0.0006186997052,
655.0028076,0.0002236087748,
654.0177612,-0.000305502268,
652.9959717,0.000117227486,
652.0103149,0.0002183253528,
650.987915,-0.0003371632483,
650.0016479,-0.0001219058031,
649.0151978,0.0002727684332,
647.9919434,0.0003054323606,
647.0048218,-0.0005156011903,
646.0175171,-0.0005299764453,
644.9932861,-5.704892828E-005,
644.0053711,-0.0002269088873,
643.0172119,-0.0004363734333,
641.9920654,0.0001182890992,
641.0033569,0.000475656183,
640.0142212,-0.0002239076712,
638.9882813,7.963254029E-005,
637.9986572,1.69556406E-005,
637.008728,0.0001470571879,
635.9818726,5.527005851E-005,
634.991394,0.0002192836109,
634.0006714,-0.0002512800565,
633.0095825,-7.521810767E-005,
632.0182495,7.991733582E-005,
630.9899292,-0.0003463196917,
629.9980469,-0.0001941013761,
629.0059204,0.0003193431476,
628.0134888,0.0001418523898,
626.9840088,-0.0001846829982,
625.9910278,-7.371698302E-005,
624.9976807,-0.000753559405,
624.0041504,-4.338271538E-005,
623.010376,0.0001743252069,
622.0162964,-7.459695189E-005,
620.9851074,-0.0001237690594,
619.9904175,-0.0001131069512,
618.9955444,-5.922305718E-005,
618.0003052,2.1356449E-005,
617.0048828,8.022802649E-005,
616.0091553,-7.299781828E-006,
615.0131836,-0.0001681744616,
614.0168457,0.000200144641,
612.9833984,5.021906873E-006,
611.9865723,-0.000295931095,
610.989502,-0.000186494246,
609.9921875,-9.312773182E-005,
608.9945068,6.937495073E-006,
607.996582,9.374320507E-005,
606.9984741,0.0001345502242,
606,-0.0003100549802,
605.0012817,-0.0001512512536,
604.0023804,-2.257197775E-005,
603.0031738,0.0003416997497,
602.0036621,-0.0004393214767,
601.0038452,0.0002361442166,
600.0038452,-0.0001334992994,
599.0036011,-0.0002377234341,
598.0030518,0.0001981505193,
597.0021973,-0.0001463863591,
596.0012207,-2.412505273E-005,
594.9998779,-7.382050535E-005,
593.99823,-0.0003013116657,
592.9963989,-0.0002929303446,
591.9942627,0.0002834920888,
590.9918823,0.0002122391306,
589.9892578,-0.00043704579,
588.9863892,0.0001297598501,
587.9832764,-4.762991921E-006,
587.0170288,-1.698086271E-005,
586.0133057,0.0003420106077,
585.0094604,-0.0003515961871,
584.005249,-2.743826008E-005,
583.0008545,-0.0002034678182,
581.9960938,0.0002353931195,
580.9912109,-2.453920388E-005,
579.9860229,0.0001500092039,
579.0178223,-7.511458534E-005,
578.012085,-0.0001378467859,
577.0061646,-5.792893353E-005,
575.999939,-0.0005097578396,
574.9935303,0.0001591502078,
573.9867554,-0.0002490033803,
573.0171509,-3.313391289E-006,
572.0098877,-0.0003517513687,
571.0025024,0.0002111513895,
569.994751,0.0004379265592,
568.9868164,-0.0001264604216,
568.0159302,-0.0001319983712,
567.0075073,-0.0001232514915,
565.9988403,-0.0001347414509,
564.9898682,7.29527892E-005,
564.0180664,-0.0001698305132,
563.008667,-7.656394155E-005,
561.9990234,3.476624624E-005,
560.9890137,-8.283431271E-006,
560.0162964,-8.023908595E-005,
559.0059204,-5.177190587E-007,
557.9952393,-7.998028013E-005,
556.984375,-0.0002942755236,
556.0106201,0.0001556025381,
554.9993286,0.0002656712895,
553.9876709,0.0002698673925,
553.0133057,0.0001931522711,
552.0011597,0.0001514075266,
550.9888306,0.0002918069949,
550.0137939,2.710345507E-005,
549.0009766,8.58981366E-005,
547.987915,0.0002994744573,
547.012146,9.83001446E-005,
545.9986572,0.0001874289592,
544.9848633,-0.0001611878979,
544.0084229,0.0001334885601,
542.9942017,0.0001104694747,
542.0172729,9.071390377E-005,
541.0025635,0.0001390816906,
539.9876709,0.0002832330647,
539.0100098,0.0001643034338,
537.9946899,0.0003641352232,
537.0166626,0.0002708257816,
536.0007935,0.000500301423,
534.9847412,0.000305510097,
534.0059814,0.0005075060762,
532.9894409,0.0003333579807,
532.0102539,0.0005165509647,
530.9932861,0.0007597183576,
530.0137329,0.0008536257083,
528.9962158,0.0008515507798,
528.0162354,0.001076558721,
526.998291,0.001319988049,
526.0178223,0.001460168394,
524.9994507,0.001787891379,
524.0185547,0.002120361896,
522.9996948,0.00272922474,
522.0183716,0.003241653321,
520.9991455,0.003677954432,
520.0172729,0.004575966857,
518.9976196,0.005396365188,
518.0153809,0.006507159211,
516.9952393,0.008098790422,
516.0125732,0.009735348634,
514.9919434,0.0116998041,
514.0089722,0.01401801221,
512.987793,0.01693814062,
512.0043945,0.02030406892,
510.9828186,0.02458813787,
509.9989319,0.02924298681,
509.0148621,0.03455897793,
507.9927063,0.04171444103,
507.0081787,0.05026257038,
505.9855347,0.06084508821,
505.0005798,0.07307361811,
504.0154419,0.08672330528,
502.992157,0.1033650041,
502.0065918,0.1211512387,
500.9829712,0.1387217492,
499.9969482,0.1543874741,
499.0107422,0.164674595,
497.9863586,0.1671038419,
496.9997559,0.1617900133,
496.013031,0.1501359791,
494.9880066,0.134422645,
494.000824,0.1192289889,
493.0133972,0.1073932052,
491.987793,0.09970847517,
490.999939,0.09452998638,
490.0119629,0.0896243453,
488.9857178,0.08615420759,
487.9972839,0.08337053657,
487.008667,0.08044628054,
485.9817505,0.07640594989,
484.9927368,0.07058538496,
484.003479,0.06593535095,
483.0140381,0.05993515998,
481.9863892,0.05345392227,
480.996521,0.04881797358,
480.0065308,0.04487674683,
479.0162964,0.04200941324,
477.987793,0.0398315154,
476.9971924,0.03789262474,
476.0063782,0.03685435653,
475.0153198,0.03610182554,
473.9859924,0.03554400429,
472.9945679,0.03556190059,
472.0029907,0.03527037427,
471.0112305,0.03504692018,
469.9810486,0.03469001129,
468.9888916,0.0341247879,
467.9965515,0.03339144588,
467.0039978,0.03198906779,
466.0112,0.03047309443,
465.0183411,0.02871751785,
463.986969,0.02672423795,
462.9936523,0.02429977618,
462.0001831,0.02255924791,
461.0064697,0.02064046822,
460.0125732,0.01927354187,
459.0185242,0.0182557404,
457.9859314,0.01696556807,
456.9915161,0.01584749669,
455.9968872,0.01482648589,
455.0020752,0.01391907688,
454.0069885,0.01270854939,
453.0118408,0.01164053287,
452.016449,0.01074327808,
450.982605,0.009953725152,
449.9868469,0.009129517712,
448.9909363,0.008751807734,
447.994751,0.008139090613,
446.9984741,0.007956055924,
446.0020142,0.00770339882,
445.0053101,0.00719628809,
444.0084534,0.006834980566,
443.0114441,0.006714663934,
442.0141907,0.006238352507,
441.0168152,0.006025012583,
439.980896,0.005686209537,
438.9831238,0.005531234667,
437.985199,0.005103833508,
436.9870911,0.004792130087,
435.9888306,0.004545151256,
434.9903259,0.004267073236,
433.9916992,0.003968926612,
432.9928894,0.0035128647,
431.993866,0.003433983075,
430.9946899,0.003208924318,
429.9953613,0.003141830908,
428.9958496,0.002448167186,
427.9960938,0.002393424744,
426.9962463,0.002321538515,
425.9961853,0.002106367378,
424.9959412,0.001830417663,
423.995575,0.001723382156,
422.9949646,0.00172590313,
421.9942627,0.001676994492,
420.9933472,0.001537211589,
419.9922791,0.001331178937,
418.9909973,0.001160853193,
417.9895935,0.001195764402,
416.9880066,0.001150341472,
415.9862061,0.0009457892738,
414.9842834,0.0009900751757,
413.9822083,0.0008475565119,
413.0184631,0.0009418720147,
412.0160217,0.0008277414599,
411.0134583,0.000956814969,
410.0107117,0.001032212051,
409.0077515,0.0007827978116,
408.0046387,0.000754972978,
407.0014038,0.0008646231145,
405.9979248,0.0009510037489,
404.9943542,0.0007397517329,
403.9906006,0.0009894266259,
402.9866638,0.00101023505,
401.9825439,0.001110217418,
401.0169067,0.00108488882,
400.0125427,0.001223124331,
399.0079041,0.001203707419,
398.0031738,0.001373608597,
396.998291,0.001627467689,
395.9932251,0.0018827233,
394.9880066,0.002055205172,
393.9826355,0.002148664556,
393.0157471,0.002327029593,
392.0100708,0.002716903575,
391.0042114,0.002822047798,
389.9981995,0.003093283856,
388.9920044,0.003318830626,
387.9856567,0.003699440276,
387.0178833,0.004076124635,
386.011261,0.004474634305,
385.0044556,0.004454208538,
383.9974976,0.00461787777,
382.9903564,0.004738399759,
381.9830933,0.005098804832,
381.0144348,0.00511250319,
380.0068665,0.005238952581,
378.9991455,0.005524365697,
377.9912415,0.005352728534,
376.9831848,0.005442680325,
376.0137939,0.005605149083,
375.0054626,0.005658698268,
373.9969788,0.00601564208,
372.9883118,0.005966143217,
372.0183411,0.005680308212,
371.0093994,0.005856535397,
370.0003052,0.006051969249,
368.9910583,0.006088614929,
367.9816895,0.006187174004,
367.0109558,0.006236277986,
366.0012817,0.006734013092,
364.9914246,0.006897912826,
363.9814453,0.007153811865,
363.0101624,0.006927948911,
361.9998779,0.007055006921,
360.9894714,0.007084001787,
360.0177612,0.00720265694,
359.0070496,0.007326399907,
357.9962158,0.007311499212,
356.985199,0.007089500781,
356.0129395,0.007547465619,
355.0016479,0.007299126592,
353.9902344,0.007268590853,
353.0175781,0.0072357147,
352.0058289,0.007436458021,
350.993988,0.007189129479,
349.9819946,0.007104472723,
349.0087585,0.007058611605,
347.9964905,0.007101157214,
346.9840698,0.007087185513,
346.0104675,0.006971928291,
344.9978027,0.006953594275,
343.9849548,0.006631623954,
343.0109253,0.006756465882,
341.9978027,0.006647762842,
340.9845581,0.006967193447,
340.0101624,0.00670346478,
338.9966431,0.006702150218,
337.9829712,0.006385646295,
337.0081482,0.006133218296,
335.9942017,0.00653322693,
335.019165,0.006361268926,
334.0049744,0.006178298965,
332.9906311,0.00602965802,
332.0151672,0.005967114121,
331.0006104,0.005620121956,
329.9858398,0.005729722325,
329.0100098,0.005333938636,
327.9949951,0.005082671065,
327.0189209,0.005355139729,
326.0036621,0.005144013558,
324.9882813,0.005092990119,
324.0118103,0.004778807983,
322.9961853,0.004883876536,
322.0194397,0.004844060633,
321.00354,0.004840762354,
319.9874878,0.004494851921,
319.010437,0.004878902808,
317.9941406,0.004258551169,
317.0167847,0.004639907274,
316.0002441,0.004246839788,
314.9835815,0.004480728414,
314.0058899,0.00429904554,
312.9889221,0.004575966857,
312.0109863,0.004546982702,
310.9938354,0.00481267646,
310.0156555,0.005228656344,
308.99823,0.00572347967,
307.9806824,0.006461072247,
307.0021667,0.006919742562,
305.9843445,0.007732015103,
305.0055847,0.008540239185,
303.9875793,0.009193470702,
303.0085449,0.008990698494,
301.9902649,0.009005525149,
301.0109863,0.008552435786,
299.9925232,0.008006019518,
299.0130615,0.007650308311,
297.9942627,0.007167707197,
297.0145569,0.006753600203,
295.9955444,0.006214561407,
295.015625,0.005874115042,
293.9964294,0.005816708785,
293.0162659,0.005828173831,
291.9967651,0.005491254386,
291.0164185,0.00545175001,
289.9967041,0.005311716348,
289.0161438,0.005052421708,
287.9961548,0.004714768846,
287.0153809,0.004460668191,
285.9952087,0.00414466951,
285.0141907,0.003805553773,
283.9937439,0.003322378034,
283.0125122,0.003193173325,
281.9918823,0.002939596539,
281.010437,0.002700102748,
279.989563,0.00261157658,
279.0078735,0.0022568719,
277.9868164,0.002133238362,
277.0048828,0.002021551132,
275.9836121,0.002101919381,
275.0015259,0.001761951367,
274.0192871,0.00153219793,
272.9976501,0.001467700698,
272.0152283,0.001343175187,
270.9934082,0.001152625424,
270.0107727,0.001107933582,
268.9887085,0.0007193452329,
268.0058594,0.0008960345876,
266.9836426,0.0006919911248,
266.0005798,0.0006909799413,
265.0174255,0.0007025176892,
263.9948425,0.0004520229704,
263.0114441,0.0004692035727,
261.988678,0.0003791360068,
261.005127,0.0003557930177,
259.9821167,0.000379628269,
258.9983521,0.0002565021277,
258.0145264,0.0003501193714,
256.9912109,0.0001758530998,
256.0071411,0.0003379692498,
254.9836426,0.0002493275388,
253.9994049,0.0002391486341,
253.0150604,0.000341103907,
251.9912262,0.0003593423171,
251.0067139,0.0005625038175,
249.9826965,0.0006446505431,
248.9979706,0.0008213873371,
248.0131378,0.001189326984,
246.9888153,0.001620608266,
246.0037994,0.002341291634,
245.0187073,0.003694427898,
243.9941254,0.005845542066,
243.0088348,0.008331438527,
241.9840088,0.01131496392,
240.9985504,0.01502991188,
240.0129547,0.01858539507,
238.9878998,0.02171277814,
238.0021515,0.02368672006,
237.0163116,0.0244005844,
235.9909058,0.02440767735,
235.0048828,0.02448249236,
234.0187988,0.02433851361,
232.9931183,0.02402982675,
232.0068512,0.02320085838,
230.9810181,0.02256789245,
229.9945526,0.02150674351,
229.0079803,0.02008761279,
227.9818726,0.01880040206,
226.9951324,0.01763346791,
226.0083466,0.01660220325,
224.9819336,0.01532489154,
223.9949799,0.01460741367,
223.0078888,0.01372549497,
221.9812317,0.01308723725,
220.993988,0.012082031,
220.0066528,0.01203750446,
219.0192566,0.01122708153,
217.9922485,0.01034923643,
217.0046844,0.009982065298,
216.0169983,0.009827378206,
214.9897766,0.009758221917,
214.0019226,0.009377795272,
213.0140533,0.009173138998,
211.9865265,0.008845794946,
210.9984589,0.008694099262,
210.0102997,0.008660085499,
208.9825592,0.008316767402,
207.9942322,0.007759789936,
207.0058594,0.009794042446,
206.0173798,0.008989905939,
204.9893036,0.01016852725,
204.0006561,0.007229450624,
203.0119781,0.00803056825,
201.9836273,0.00823539868,
200.9947815,0.007865924388,
200.0058441,0.01023666188,

sample3,
sample3
Collection Time: 14/04/2023 4:46:30 PM
Operator Name  :
Scan Version 5.0.0.999
Parameter List :
Instrument  Cary 60
Instrument Version  2.00
Start (nm)  800.0
Stop (nm)  200.0
X Mode  Nanometers
Y Mode  Abs
UV-Vis Scan Rate (nm/min)  600.000
UV-Vis Data Interval (nm)  1.00
UV-Vis Ave. Time (sec)  0.1000
Beam Mode  Dual Beam
Baseline Correction  On
Baseline Type  Baseline correction
Baseline File Name
Baseline Std Ref File Name
Cycle Mode  Off
Method Log     :
Method Name    :
Date/Time stamp: 14/04/2023 4:17:18 PM
Method Modifications:
UVVIS SAT Changed: 14/04/2023 4:19:15 PM, Old:0.0125, New:0.1000
Common SAT Changed: 14/04/2023 4:19:15 PM, Old:0.0125, New:0.1000
Common Interval nm Changed: 14/04/2023 4:19:16 PM, Old:     5.00, New:     1.00
Baseline Correction Changed: 14/04/2023 4:19:16 PM, Old:0, New:1
Storage Changed: 14/04/2023 4:19:16 PM, Old:1, New:0
End Method Modifications
<Current Wavelength> , 211.0

