sample4,,
Wavelength (nm),Abs,
799.989502,0.0002719395561,
798.9833984,0.0008596430998,
798.0117188,-0.0002538154076,
797.0047607,0.0002680283505,
795.9975586,-5.368417987E-005,
794.9898682,0.001171209384,
794.0166016,0.0009613031289,
793.0080566,-0.0001893922163,
791.9992676,0.0005517473328,
790.9899292,0.001505805645,
790.0150757,0.0003649383434,
789.0050049,0.001459804829,
787.9945068,0.0009223639499,
786.9837036,0.0008935444057,
786.0072632,0.0003373993095,
784.9956665,0.0010002458,
783.9835815,0.000422198209,
783.0060425,0.0005597044947,
781.9932861,0.00056418858,
781.0149536,0.0007054994348,
780.0014038,0.0006771350745,
778.9874268,1.8560635E-005,
778.0079956,0.0003728402953,
776.9932251,0.001186134294,
776.0131226,0.001040671021,
774.9975586,0.0002599211002,
774.0166626,0.0007106072735,
773.0003662,0.0003586169041,
771.9836426,0.001317988732,
771.0016479,0.0003182292276,
769.9841919,0.0006277222419,
769.0014038,5.534772572E-005,
767.9831543,0.001024609432,
766.9996338,0.001065374236,
766.0158081,0.000442409364,
764.9963989,0.0004158500233,
764.0118408,0.0008901982801,
762.9916992,0.0005929343752,
762.0063477,0.0001973994804,
760.9854736,0.0008147739572,
759.9994507,0.000355508033,
759.0130005,0.000314162171,
757.9909668,0.0004949886934,
757.0038452,0.001336294226,
756.0163574,0.0005456305225,
754.9931641,0.0004414506257,
754.0048828,0.00035112974,
753.0163574,0.001056551584,
751.9920654,0.0003271406167,
751.0027466,0.0006845759926,
750.0131226,0.0008251738618,
748.9877319,0.0006171456189,
747.9972534,0.000567765499,
747.0065918,0.0008357555489,
746.0155029,0.0005721459747,
744.9885864,0.0004149172455,
743.9968262,0.001156570623,
743.0046387,0.001069681952,
742.012085,0.0005214751582,
740.9838257,0.0007224307628,
739.9905396,0.0005418723449,
738.9969482,0.0009579045582,
738.0030518,0.001090597943,
737.0087891,0.00112724246,
736.0141602,0.0006947653019,
734.9836426,0.0006517798174,
733.9883423,0.0006336587248,
732.9926758,0.0005855986965,
731.9966431,0.0005039296229,
731.0002441,0.0008846992278,
730.00354,0.0008825982222,
729.0065308,0.0007373921108,
728.0091553,0.0005969003541,
727.0113525,0.0006295109633,
726.0132446,0.0005308313412,
725.0148315,0.0006976951263,
724.0160522,0.0009367354796,
723.0169678,0.0004147617728,
722.0174561,0.0006627980038,
721.0177002,0.001120961737,
720.0175781,0.0002165124315,
719.0170898,0.0007368734805,
718.0162354,0.0007304429309,
717.0151367,0.0005643182085,
716.0136108,0.0007458971813,
715.0117188,0.0006246632547,
714.0095825,0.000857360661,
713.0070801,0.0003895513946,
712.0042114,0.0003126856172,
711.0010376,0.0005658474402,
709.9975586,0.0007176598301,
708.9936523,0.001052243984,
707.989502,0.0003493421827,
706.9849243,0.0005272547132,
706.0160522,0.0006971247494,
705.0108032,0.0005928048049,
704.0053101,0.000413414411,
702.9994507,0.000652661256,
701.9932861,0.001146993251,
700.9868164,0.0004251521023,
700.0159302,0.0006992507842,
699.008728,0.0006641461514,
698.0012817,0.0007568918518,
696.9934692,0.0003538758901,
695.9853516,0.0005666509387,
695.0128174,0.0006746720755,
694.0040894,0.0009777514497,
692.9949341,0.0008758801268,
691.9854126,0.0008123102016,
691.0117798,0.0003838514094,
690.001709,0.000748879218,
688.991272,0.0001860046177,
688.0166626,0.0004063667729,
687.0056152,0.0002820415248,
685.9942627,0.001039762865,
684.9824829,0.001132303383,
684.0066528,0.0006328551099,
682.9943237,0.0007525095134,
682.0178223,0.0005181318847,
681.0048828,0.0006625387468,
679.9915771,0.0007688722108,
679.0141602,0.0008139959536,
678.0002441,0.0008829613216,
676.9860229,0.0006157198222,
676.0076904,0.0007819939055,
674.9928589,0.0001133694532,
674.013855,0.00072844635,
672.9984131,0.0006047287607,
671.982605,0.0008465449791,
671.0027466,0.0004316817794,
669.9863281,0.001090053003,
669.0058594,0.0001936184271,
667.9888306,0.001001153956,
667.0077515,0.0001956384367,
665.9900513,0.0004228719044,
665.0084839,0.0006572499988,
663.9901733,0.0004635025398,
663.0079346,0.0006632387522,
661.9890747,0.0003801205603,
661.0062256,0.0005801035441,
659.9866943,0.0007894366281,
659.0032959,0.0004857628956,
657.9832153,0.0009157489985,
656.9991455,0.0004592527403,
656.0149536,0.0005542614963,
654.9938354,0.0007432522834,
654.0089722,0.0002396148338,
652.9873657,0.0003872714005,
652.0018921,0.0007012472488,
651.0161133,0.0006828907644,
649.9936523,0.0005045257276,
649.0072632,0.0003607413091,
647.9841309,0.0003772446944,
646.9971924,0.0001338769798,
646.0100098,0.0004403104831,
644.9859619,0.0007852095878,
643.9981689,0.0006142940838,
643.0101318,0.0009711876628,
641.9851685,0.000124710612,
640.996582,0.0005452158512,
640.0076904,0.0004340138403,
638.9818115,0.0005997517728,
637.9923706,0.0008007954457,
637.0026245,0.0002436553041,
636.0126343,0.0005345116369,
634.9855957,0.0006173789152,
633.9949951,0.0006891650264,
633.0040894,0.000578626059,
632.0129395,0.0009850419592,
630.9848022,0.0002580303117,
629.993042,0.0005465635913,
629.0010376,0.0008077976527,
628.0087891,0.0007805935456,
627.0161743,0.001053619315,
625.9866333,0.0007680942654,
624.9935303,0.0008198571741,
624.000061,0.000616082747,
623.0064087,0.0004896242172,
622.0125122,0.000744911842,
621.0182495,0.0004530594742,
619.9869995,0.0007958161877,
618.9921875,0.0007018176257,
617.9971313,0.0004290647048,
617.0018921,0.000769338978,
616.0062866,0.0005931676715,
615.010437,0.0007287574699,
614.0142822,0.0008069936885,
613.0179443,0.0004728056374,
611.984314,0.0006629276322,
610.9874268,0.0007711023209,
609.9902344,0.0006450393703,
608.9926758,0.0004667417379,
607.9949951,0.0002278821776,
606.9969482,0.0007820198662,
605.9986572,0.0009834852535,
605.0001221,0.0006247410201,
604.0012817,0.0005069100298,
603.0023193,0.0006673349999,
602.0029297,0.0006638609339,
601.0033569,0.000560819055,
600.003479,0.0004958957434,
599.0032959,0.0005900830729,
598.0029297,0.0007227937458,
597.0022583,0.000856582541,
596.0014038,0.0006355511723,
595.0001831,0.000912143325,
593.9987793,0.0006503280019,
592.9970093,0.0004135439813,
591.9951172,0.0006091095856,
590.9929199,0.0005677395966,
589.9903564,0.0006869871868,
588.9876709,0.000485218683,
587.9846191,0.0005331120919,
586.9813843,0.0003820637066,
586.0150757,0.0002932575881,
585.0112915,0.000693780079,
584.0072632,0.0005676618312,
583.0029907,0.0007723211311,
581.9984131,0.0006520390743,
580.9937134,0.0005889684544,
579.9886475,0.0006366659072,
578.9833374,0.000475656183,
578.0150146,0.0007924708189,
577.0092773,0.0008630149532,
576.0031738,0.0006129202084,
574.9968872,0.0003514665295,
573.9903564,0.000458604889,
572.9835205,0.0006104834611,
572.0137329,0.0002325700334,
571.0064697,0.0007697797846,
569.9988403,0.0006190639106,
568.9911499,0.0005588750937,
567.9830933,0.0006768239546,
567.012146,0.0008429657901,
566.0036011,0.0008977985126,
564.994751,0.0004311376542,
563.9857178,0.0004662493884,
563.013855,0.0005980409333,
562.0043335,0.0007522761589,
560.9946289,0.0005677914014,
559.9844971,0.0005354965106,
559.0116577,0.000414891314,
558.0011597,0.0006466467166,
556.9904785,0.000284320995,
556.0169067,0.0004567909637,
555.0056763,0.0008243958,
553.9942017,0.0005099940463,
552.9825439,0.0006875316612,
552.0079956,0.0005574754323,
550.9958496,0.0006188824191,
549.9833984,0.0004823162162,
549.0082397,0.0004529558355,
547.9954224,0.0006731683388,
546.9822388,0.0006056619459,
546.0064087,0.0008046077564,
544.9927368,0.000526684511,
544.0164795,0.0005127671175,
543.0023804,0.0005409652367,
541.9880981,0.0006717164651,
541.0110474,0.0005999073037,
539.9962769,0.0007795821875,
538.9812012,0.0007964386023,
538.0036011,0.0004630360927,
536.9880981,0.0003941632458,
536.0100098,0.0006954135024,
534.9940796,0.0004361904575,
534.0155029,0.0006471911329,
532.9990845,0.0005144776078,
531.9824219,0.0006053767866,
531.0032349,0.0006918096333,
529.986084,0.0006077357102,
529.0064697,0.0005170692457,
527.9888916,0.0005594452959,
527.0087891,0.0005878797383,
525.9908447,0.0006792350905,
525.0102539,0.0006231337902,
523.9918213,0.0005923122517,
523.0108643,0.000767420046,
521.9918823,0.0006998212193,
521.0105591,0.0006866242038,
519.9910889,0.0005056919181,
519.0092773,0.0005974447122,
517.9894409,0.0006720534875,
517.0072021,0.0004439900222,
515.9869385,0.0005745565286,
515.0042725,0.0006446505431,
513.9835815,0.000612583186,
513.0003662,0.0005251035327,
512.0170898,0.0005113676307,
510.9957581,0.0007316616247,
510.0119324,0.0006736090872,
508.9901733,0.000347217836,
508.0059814,0.0003857168485,
506.9837646,0.0007483346853,
505.999176,0.0006393360673,
505.0143127,0.0004982281826,
503.9914856,0.0005615188857,
503.0062561,0.0005552723305,
501.9828796,0.0005942304851,
500.9972839,0.0004768223444,
500.0114441,0.0006788980681,
498.9874878,0.0008404499386,
498.0012512,0.0008673206321,
497.0147095,0.0006266852724,
495.9901123,0.0006852500956,
495.0031738,0.0004884062218,
494.0161743,0.0006689942675,
492.9909363,0.0008046596195,
492.003418,0.0006201008218,
491.0157471,0.0006350845215,
489.9898682,0.0005945674493,
489.00177,0.0008462856058,
488.0135193,0.0004920343636,
486.986969,0.0005603265599,
485.9982605,0.0006575610605,
485.0093994,0.0006483058678,
483.9822083,0.0006034067483,
482.992981,0.0006314552156,
482.0035095,0.0007521983352,
481.0137634,0.0006111574476,
479.9858093,0.0005707463133,
478.9957581,0.0007374439738,
478.0054626,0.0005892795161,
477.0150146,0.0006588054821,
475.9861755,0.0006921207532,
474.9953003,0.0005909902975,
474.0042419,0.0005394878681,
473.01297,0.0006767202285,
471.9833679,0.0006135423318,
470.9917603,0.0007949604187,
469.9998779,0.0006505353958,
469.0078735,0.0006863130839,
468.015625,0.0008188976208,
466.9850464,0.0006900206208,
465.9924927,0.0007507721311,
464.9996643,0.0009144520154,
464.0066833,0.0005357038463,
463.0134888,0.0007725026808,
461.9819641,0.0008471155888,
460.9883118,0.0008092499338,
459.9945679,0.0008399312501,
459.0006409,0.0007356288261,
458.0065613,0.0006765646394,
457.0121765,0.0006855093525,
456.0176697,0.0006728313165,
454.9847107,0.0008587352931,
453.9898682,0.0007866099477,
452.994812,0.0006730387104,
451.9995728,0.0007800230524,
451.0040894,0.0007370809326,
450.0085144,0.0007308837376,
449.0126953,0.0007085848483,
448.0167236,0.000678638753,
446.9822998,0.0006977988523,
445.9859009,0.0007144965348,
444.9893494,0.0008072530036,
443.9926453,0.0008382713422,
442.9957581,0.0007079626084,
441.9986877,0.000983277685,
441.0014038,0.0008946338785,
440.0039978,0.0007700131973,
439.0063171,0.0009340115939,
438.0085754,0.0008882010006,
437.0106201,0.0008200387238,
436.0124817,0.0008518879185,
435.0140991,0.0009531829273,
434.0155945,0.0007031399873,
433.0169373,0.0009288233123,
432.0180969,0.0007353695692,
431.019043,0.0008006917196,
429.9814148,0.0008588649798,
428.9819946,0.0007936896873,
427.9824524,0.0008867483702,
426.982666,0.0007874657167,
425.9827881,0.000839049404,
424.9826965,0.0008066565497,
423.9824829,0.0006939615705,
422.9819946,0.0007681461284,
421.9813843,0.0007560101803,
421.019104,0.0009025714244,
420.018158,0.0008615624974,
419.0170288,0.0008216726128,
418.0158081,0.0007744216709,
417.0143433,0.001076195389,
416.0126953,0.001132822363,
415.0108948,0.001080347458,
414.0089111,0.001236311626,
413.0068054,0.001187224523,
412.0044861,0.001190339332,
411.0019836,0.001252510818,
409.9993896,0.001304045902,
408.9966125,0.00143526087,
407.9936218,0.001546251937,
406.990509,0.001747448579,
405.9872131,0.001719223917,
404.9837036,0.001879031537,
404.0187073,0.002003190806,
403.0149231,0.002257834654,
402.0109558,0.002165158046,
401.0068359,0.002439420437,
400.0025635,0.002509659855,
398.9981384,0.002825981937,
397.9934998,0.00296438206,
396.988739,0.003048861166,
395.9837952,0.00338389026,
395.017395,0.003629112616,
394.0121155,0.004103457555,
393.0067444,0.004679966252,
392.0011597,0.005056690425,
390.9954224,0.00564978132,
389.9895325,0.006503139157,
388.9835205,0.007340300363,
388.0160217,0.008285764605,
387.0096741,0.009112361819,
386.0031433,0.01015204471,
384.9964905,0.01165369432,
383.9896545,0.01274826657,
382.9826965,0.01370473579,
382.0142822,0.01496260241,
381.006958,0.01628566161,
379.9995422,0.01795363799,
378.9919434,0.01994592324,
377.9841919,0.02177333273,
377.0150757,0.0237388555,
376.007019,0.02645365708,
374.9988098,0.02983255312,
373.990448,0.03355092928,
372.9819336,0.03807337955,
372.0120544,0.04313413426,
371.0032654,0.04921889678,
369.9942932,0.05655904859,
368.985199,0.06525117904,
368.01474,0.07457238436,
367.0053711,0.08448524028,
365.9958191,0.09470730275,
364.986084,0.105262585,
364.0150757,0.1125224382,
363.0050964,0.1185967475,
361.9949341,0.1216683984,
360.9846497,0.1220676228,
360.0130615,0.1200520694,
359.0025024,0.1150143221,
357.9917603,0.1099386662,
356.980896,0.105906412,
356.0087891,0.1024937928,
354.9976196,0.1006195992,
353.9863281,0.1000612155,
353.0138245,0.1004160047,
352.0021973,0.101255931,
350.990448,0.1030295566,
350.0175171,0.1059021503,
349.0055237,0.1095179766,
347.9933777,0.1139682457,
346.9811096,0.117146492,
346.0075989,0.1191250384,
344.9950256,0.119838275,
343.9823303,0.1189644635,
343.0084534,0.1159487665,
341.9954529,0.1113697588,
340.9823608,0.1052906513,
340.0080566,0.09860859811,
338.9946594,0.09276156127,
337.9811096,0.08856777102,
337.0064392,0.08465790749,
335.9926453,0.08168035001,
335.0177002,0.07976859063,
334.0036316,0.07830218971,
332.9894409,0.0775038898,
332.0141296,0.07734020054,
330.9996643,0.07773051411,
329.9850464,0.07866241038,
329.0093384,0.07992881536,
327.9944763,0.08209229261,
327.0185242,0.08456065506,
326.0033875,0.08781217784,
324.9881287,0.09185303748,
324.0117798,0.09334426373,
322.9962463,0.0920105502,
321.9806213,0.08634153008,
321.0039063,0.0786504969,
319.9879761,0.07023000717,
319.0110168,0.06522215158,
317.994873,0.06212066486,
317.0176697,0.05875300989,
316.0012512,0.05618526042,
314.9847107,0.05423137918,
314.0071106,0.05215680599,
312.9903259,0.05152925476,
312.0125122,0.05172919109,
310.9954834,0.05256345496,
310.0174255,0.05363907665,
309.0001221,0.05315396935,
307.982666,0.05116029456,
307.0042725,0.04734949768,
305.9866333,0.04271599278,
305.0079956,0.03898004442,
303.9900513,0.03630558774,
303.0112,0.03413730487,
301.9930725,0.03238487244,
301.0139465,0.03087985888,
299.9955444,0.03028440103,
299.0162048,0.03082188405,
297.9975891,0.03234058619,
297.0180054,0.0350693427,
295.999115,0.0402405262,
295.0193481,0.04826311395,
294.0002441,0.06086384878,
292.9809875,0.0868177861,
292.0008545,0.1392254531,
290.9813843,0.2343406379,
290.0010376,0.3563399017,
288.9813538,0.469004184,
288.0007324,0.4467453957,
286.980835,0.329831481,
286.0000305,0.2403367162,
285.019104,0.2179597467,
283.9988403,0.2323382795,
283.0177307,0.2400183082,
281.9972229,0.2373019904,
281.0158691,0.241505906,
279.9951782,0.262108475,
279.0136108,0.2881924212,
277.9926453,0.3010196984,
277.0108643,0.2815406919,
275.9897156,0.2347043902,
275.0077209,0.1951408088,
273.9863586,0.1777058393,
273.0041504,0.175868541,
271.9825134,0.1722216457,
271.0001221,0.169305101,
270.0175781,0.1699966788,
268.995697,0.1716148555,
268.01297,0.1729804873,
266.9908447,0.1771667451,
266.0079041,0.1867886335,
264.9855652,0.1939282864,
264.0024414,0.2045434415,
263.0191956,0.209461391,
261.996521,0.209102869,
261.0131226,0.2041756958,
259.9902649,0.1968442798,
259.0066223,0.2192510068,
257.9835205,0.1823300272,
256.9996948,0.2073890418,
256.0157776,0.3222567439,
254.9924011,0.1049039736,
254.0083008,-0.2098194659,
252.9846954,-0.07624720782,
252.0003662,0.1081087962,
251.0159607,-0.211650148,
249.9920502,0.09730805457,
249.007431,0.03128099442,
247.9833679,0.01055553462,
246.9985809,-0.04410589859,
246.0136719,-0.01791384816,
244.9892731,0.04698335007,
244.0042267,0.01180770434,
243.0190582,0.1324167997,
241.9943848,0.07820070535,
241.0090485,-0.05386539549,
239.9841614,-0.2452981174,
238.9986267,0.09240877628,
238.0129852,-0.2445259392,
236.987854,0.1729001552,
236.0020294,0.01592775248,
235.0161285,-0.2786405683,
233.9906921,0.5955836773,
233.0045929,10,
232.0184631,0.2560111582,
230.9927521,10,
230.0063934,0.6874691248,
228.980484,0.006003752351,
227.993988,-0.000301880762,
227.0073547,0.0405543372,
225.9811859,-0.008848343976,
224.9944153,-0.01243446115,
224.0075531,-0.1294383109,
222.9811249,0.09226199985,
221.9940796,0.05154327676,
221.0069427,0.1233695,
220.0197601,-0.1303223521,
218.9929657,0.09757575393,
218.0056,-0.0575229004,
217.0181427,-0.01251711417,
215.9911041,0.1302355975,
215.0034637,0.06185403839,
214.0157776,-0.03034578823,
212.9884644,-0.04564096034,
212.0005798,-0.07765385509,
211.0126495,0.07897187769,
209.9850769,0.1235249713,
208.9970093,0.1481788754,
208.0088043,-0.06011683121,
206.9810181,0.1723007709,
205.9926453,0.1799692363,
205.0042419,-0.1025898233,
204.0157166,0.08432392776,
202.9876251,-0.004871546291,
201.9989624,-0.07296792418,
201.0102234,-0.1015177891,
199.9818573,0.006405690685,

sample4,
sample4
Collection Time: 23/05/2023 5:57:17 PM
Operator Name  :
Scan Version 5.0.0.999
Parameter List :
Instrument  Cary 60
Instrument Version  2.00
Start (nm)  800.0
Stop (nm)  200.0
X Mode  Nanometers
Y Mode  Abs
UV-Vis Scan Rate (nm/min)  600.000
UV-Vis Data Interval (nm)  1.00
UV-Vis Ave. Time (sec)  0.1000
Beam Mode  Dual Beam
Baseline Correction  On
Baseline Type  Baseline correction
Baseline File Name
Baseline Std Ref File Name
Cycle Mode  Off
Method Log     :
Method Name    :
Date/Time stamp: 23/05/2023 2:59:24 PM
Method Modifications:
UVVIS SAT Changed: 23/05/2023 2:59:51 PM, Old:0.0125, New:0.1000
Common SAT Changed: 23/05/2023 2:59:51 PM, Old:0.0125, New:0.1000
Common Interval nm Changed: 23/05/2023 3:00:04 PM, Old:     5.00, New:     1.00
Baseline Correction Changed: 23/05/2023 3:00:04 PM, Old:0, New:1
Storage Changed: 23/05/2023 3:00:04 PM, Old:1, New:0
X Start nm Changed: 23/05/2023 3:13:12 PM, Old:  800.0, New:  450.0
X Start nm Changed: 23/05/2023 5:52:04 PM, Old:  450.0, New:  800.0
End Method Modifications
<Current Wavelength> , 200.0

