sample15,,
Wavelength (nm),Abs,
800.0026855,-0.001567256171,
798.996582,-0.001765247551,
797.9901123,-0.00133573066,
796.9830933,-0.0004325461341,
796.0105591,-0.0008616651176,
795.0028687,-0.001823817962,
793.994751,-0.001383057097,
792.9862061,-0.001721881796,
792.0120239,-0.001251593349,
791.0027466,-0.0009066667408,
789.993042,-0.001126957708,
788.9829102,-0.001055640052,
788.0072021,-0.001184994704,
786.9962769,-0.001097368193,
785.9850464,-0.001156958169,
785.0081787,-0.00140318356,
783.9961548,-0.001056104898,
782.9836426,-0.0008296289598,
782.0057983,-0.001757977298,
780.9924316,-0.0005860768724,
780.0137329,-0.001486827037,
778.9997559,-0.0001921349176,
777.9853516,-0.0008560848073,
777.0054932,-0.001405608957,
775.9902954,-0.0009236122132,
775.0097046,-0.001071753446,
773.9937744,-0.001059978385,
773.0123901,-0.001014321111,
771.9956665,-0.001028576633,
771.0136719,-0.0008047734736,
769.9961548,-0.001036840375,
769.0133057,-0.001039061346,
767.9949951,-0.0007844642969,
767.0114746,-0.001807268476,
765.9924316,-0.0006879181019,
765.0082397,-0.0004971401067,
763.9884033,-0.0004046162358,
763.003418,-0.001288295723,
761.9827881,-0.0009752711048,
760.9971313,-0.0009974824497,
760.0109863,-0.001523973886,
758.9892578,-0.001421451219,
758.0025024,-0.0006628994015,
757.0152588,-0.002063224791,
755.9924316,-0.001321382006,
755.0045166,-0.0004624394933,
754.0162354,-0.0009338927921,
752.9923706,-0.001649630372,
752.0032959,-0.0007781077875,
751.013916,-0.0005999327987,
749.9889526,-0.001322723925,
748.9988403,-0.001546054031,
748.0084839,-0.001484402106,
747.0177002,-0.001087504672,
745.9911499,-0.0007114363834,
744.9996338,-0.0008386199479,
744.0077515,-0.001032501925,
743.0155029,-0.001714043552,
741.9875488,-0.001266202424,
740.9946289,-0.001346259494,
740.0014038,-0.001386876102,
739.0077515,-0.001411130652,
738.013855,-0.001430946053,
736.9840088,-0.001289431355,
735.9893188,-0.001410046942,
734.9943237,-0.001473309007,
733.9989014,-0.001043296419,
733.0031738,-0.001523767482,
732.0071411,-0.0009520253516,
731.0107422,-0.00151293329,
730.0140381,-0.0009164827643,
729.0169067,-0.001344246673,
727.9838257,-0.0008589266217,
726.986084,-0.001242249506,
725.987854,-0.000876235601,
724.9894409,-0.001238429337,
723.9905396,-0.00111601036,
722.991394,-0.0009054268012,
721.9919434,-0.001238635858,
720.9921265,-0.001110743149,
719.9918823,-0.00151639001,
718.991333,-0.000872928882,
717.9904785,-0.001482854248,
716.9892578,-0.001175494515,
715.987793,-0.0009920588927,
714.9858398,-0.001159281703,
713.9836426,-0.00116960844,
713.0168457,-0.0008425470442,
712.0140381,-0.001095767366,
711.0108032,-0.001042315154,
710.0072632,-0.001143791247,
709.0033569,-0.001319162548,
707.9991455,-0.001408911659,
706.9945679,-0.0008816606714,
705.9896851,-0.001009465894,
704.9844971,-0.00134063384,
704.0147705,-0.001284062979,
703.0089111,-0.001542546088,
702.0027466,-0.001090086764,
700.9961548,-0.001115442254,
699.9893188,-0.001178953797,
698.9821167,-0.001280191587,
698.0105591,-0.001288450556,
697.0026855,-0.00155456597,
695.9945679,-0.001274461742,
694.9860229,-0.001168833929,
694.0132446,-0.001362052397,
693.0040283,-0.001324272365,
691.9946289,-0.0005894891801,
690.9847412,-0.001511127572,
690.0107422,-0.0009056851268,
689.0002441,-0.001492657233,
687.989502,-0.001160933985,
687.0144653,-0.001164651592,
686.0031128,-0.001319007715,
684.991333,-0.0006730828318,
684.0154419,-0.001613371191,
683.0031128,-0.001083992887,
681.9903564,-0.001679079025,
681.0135498,-0.0009058401338,
680.0002441,-0.00130414241,
678.9866333,-0.001479448867,
678.0087891,-0.001680884045,
676.9945068,-0.001341820927,
676.0162354,-0.001255465089,
675.0012817,-0.001338053145,
673.986084,-0.001087246463,
673.0068359,-0.001269196393,
671.9909668,-0.001104391413,
671.0111084,-0.001379083376,
669.9946289,-0.0007663764409,
669.0141602,-0.001119780005,
667.9970703,-0.001466240152,
667.0159912,-0.0008700871258,
665.998291,-0.001313484856,
665.0166626,-0.001298206393,
663.998291,-0.001122465124,
663.0160522,-0.001102119219,
661.9970703,-0.000939162157,
661.0142212,-0.0008994337404,
659.9946899,-0.001267854241,
659.0112915,-0.001273584203,
657.9910889,-0.001114203013,
657.007019,-0.001023928169,
655.9863281,-0.00117322267,
655.001709,-0.001106198761,
654.0167236,-0.001284217811,
652.9951172,-0.000504586671,
652.0096436,-0.001046653488,
650.9873047,-0.001309562125,
650.0012817,-0.001624202821,
649.0148926,-0.0007161916001,
647.9916992,-0.0007533527096,
647.0048218,-0.001378360786,
646.0175171,-0.001670724247,
644.9934692,-0.0008385166293,
644.0057373,-0.001256549149,
643.0175781,-0.001152620884,
641.9926147,-0.001018298208,
641.0039673,-0.0009153978899,
640.0150146,-0.001279675402,
638.9891968,-0.001033638255,
637.9996948,-0.001381250913,
637.0098267,-0.0008633185062,
635.9830933,-0.001286592335,
634.9927979,-0.001323962701,
634.0021362,-0.001398177817,
633.0112915,-0.001316272072,
631.9833374,-0.001539605553,
630.9918213,-0.001503543463,
630.0001221,-0.0007335579721,
629.0080566,-0.001089673606,
628.0157471,-0.001283598365,
626.9863892,-0.001101344591,
625.9935303,-0.0009138996247,
625.0004272,-0.000714485941,
624.006958,-0.0008674520068,
623.0132446,-0.001454424229,
621.9824829,-0.0009353393107,
620.9881592,-0.001017316827,
619.9937134,-0.001281998237,
618.9989014,-0.001394100953,
618.0038452,-0.0009393687942,
617.0084839,-0.0007728881319,
616.0128784,-0.001023824792,
615.0170288,-0.001170434523,
613.9839478,-0.0007596061914,
612.9874878,-0.0008733422146,
611.9908447,-0.0008502976852,
610.9938354,-0.0004532338062,
609.9966431,-0.0008329876582,
608.9991455,-0.000894370547,
608.0013428,-0.0007030629786,
607.0032959,-0.0008944222354,
606.0050049,-0.0007932495209,
605.0064697,-0.0007096790359,
604.0075684,-0.0006477531279,
603.0085449,-0.0009085783386,
602.0090942,-0.0006404123851,
601.0095215,-0.0003538722813,
600.0095825,4.323171743E-005,
599.0094604,-1.899988456E-005,
598.0090332,-5.60653898E-005,
597.0083008,-3.339161412E-005,
596.0073853,0.0003656637564,
595.0061646,0.0003871159279,
594.0047607,0.000748931081,
593.0029907,0.001300722593,
592.0009766,0.001289091073,
590.9987183,0.001723356196,
589.9962158,0.002469253726,
588.9934692,0.002886147005,
587.9904785,0.003958868794,
586.9871826,0.004309947137,
585.9835815,0.005441317335,
585.0169678,0.006899622269,
584.0129395,0.008041090332,
583.008667,0.01066996995,
582.0040283,0.01255613845,
580.9992676,0.01557255164,
579.9942017,0.01822585613,
578.9888916,0.02192683518,
577.9832764,0.02527371421,
577.0147095,0.02844950929,
576.008606,0.03167620674,
575.0023193,0.03548012301,
573.9956665,0.03816181049,
572.9888916,0.0408058092,
571.9817505,0.04198206961,
571.0117798,0.04332257435,
570.0042114,0.04405392706,
568.9963379,0.04410552606,
567.9882813,0.04386453703,
567.017334,0.04347269982,
566.008728,0.04238080978,
564.999939,0.04102778062,
563.9908447,0.03955188394,
562.9815674,0.03837516531,
562.0093994,0.03613274172,
560.9996338,0.03461818397,
559.989502,0.03276744112,
559.0166626,0.03108249232,
558.0061035,0.02996363677,
556.9953613,0.02885319106,
555.984314,0.02789548971,
555.0105591,0.02743285708,
553.9990234,0.02675003186,
552.9873047,0.02652932145,
552.0128174,0.02625690959,
551.0006104,0.02554152906,
549.9881592,0.0249556154,
549.0129395,0.02440493926,
548.000061,0.02334609814,
546.9868774,0.02243874967,
546.0110474,0.02152926475,
544.9973145,0.0207344573,
543.9835205,0.01976237074,
543.006897,0.01904434524,
541.9925537,0.01781428978,
541.015564,0.0171298217,
540.0007935,0.01636572927,
538.9856567,0.01558416989,
538.0079956,0.01485828124,
536.9924927,0.01451578457,
536.0143433,0.01418123394,
534.9984131,0.01412263978,
533.9821777,0.01384712849,
533.003418,0.01364094298,
531.9866943,0.01370206475,
531.0074463,0.01356113516,
529.9903564,0.01336250734,
529.0106201,0.01350961998,
527.993103,0.01310465857,
527.0129395,0.01308126189,
525.9949341,0.01301585324,
525.0143433,0.01287069358,
523.9958496,0.01287314668,
523.0148315,0.01262161043,
521.9959106,0.01255328767,
521.0145264,0.01250282489,
519.9950562,0.01212222315,
519.0132446,0.01221928559,
517.9934082,0.01186790317,
517.0111084,0.01190214232,
515.9908447,0.0115845399,
515.0081177,0.01147063449,
513.9874268,0.01163393911,
513.0042725,0.01147446223,
511.9830627,0.01123335119,
510.9994812,0.01122447848,
510.015686,0.01093768515,
508.9938965,0.01048522908,
508.0096741,0.01013513934,
506.9874268,0.009397448972,
506.0028076,0.00919370912,
505.0180054,0.008858714253,
503.9950256,0.008553043008,
503.0098267,0.008059180342,
501.9864197,0.007634132169,
501.0007935,0.007372025866,
500.0149536,0.007198051084,
498.9909058,0.006694500335,
498.0046692,0.006586627569,
497.0181274,0.006458103657,
495.9935303,0.006120747887,
495.0066528,0.00577371195,
493.9815369,0.005696123466,
492.9942627,0.005437594838,
492.0067139,0.005342481658,
490.9810181,0.005016623065,
489.9931335,0.00468302751,
489.0050049,0.004834087566,
488.0166931,0.004458732903,
486.9901733,0.004449867178,
486.0014343,0.003990661819,
485.0125427,0.004014645237,
483.9853516,0.003744216869,
482.9960022,0.003429182339,
482.0065308,0.003127829405,
481.0168152,0.002846253337,
479.9888611,0.002765903482,
478.9987488,0.00251968368,
478.0083923,0.002314199461,
477.0179443,0.002011720557,
475.9891663,0.001789658912,
474.99823,0.001786825713,
474.0071411,0.001636172179,
473.0158691,0.00142967701,
471.9862061,0.001373660518,
470.9945679,0.00110092666,
470.0027161,0.0009113391279,
469.0106201,0.0009490840021,
468.0183716,0.0007332951645,
466.987793,0.00056737673,
465.9951172,0.0006162642385,
465.0023499,0.0002932834905,
464.0093384,0.0004170937464,
463.0160828,0.000205505552,
461.9845581,0.0003229439608,
460.9909363,0.0001406353549,
459.9971619,0.0001417488093,
459.0032349,-8.593291568E-005,
458.0090637,-0.0001680709538,
457.014679,-0.0001834927534,
455.9819336,-4.861112757E-005,
454.9872131,-9.5042873E-005,
453.9922791,-0.0002395344491,
452.9972229,-0.00016180893,
452.0019226,-0.0002831519523,
451.0065002,-0.0003327660379,
450.0108337,-0.0004129954032,
449.0150452,-0.0004374078417,
448.019043,-0.0005191691453,
446.9845581,-0.0006620723289,
445.9881897,-0.0004012024438,
444.9916077,-0.0007317489944,
443.9948425,-0.0007019775221,
442.9979858,-0.0005636375863,
442.0008545,-0.0006008634227,
441.0035706,-0.000586387061,
440.0061646,-0.0007100925432,
439.0084839,-0.0008831073646,
438.0106812,-0.0008039983222,
437.0126953,-0.0007198613603,
436.0145264,-0.0008326259558,
435.0162048,-0.0007412072155,
434.0176086,-0.0008198625874,
433.0189514,-0.0008957138634,
431.9816589,-0.0008714305004,
430.9825745,-0.0008728255052,
429.9833679,-0.0007647226448,
428.9839783,-0.0008287504897,
427.984314,-0.0006749954191,
426.9845886,-0.0009026369662,
425.9846497,-0.0007202748093,
424.9845276,-0.0008592883241,
423.9842529,-0.0007700457354,
422.9837646,-0.0007630688488,
421.9831543,-0.0007205849397,
420.9823608,-0.0007782627945,
419.9814148,-0.000722445664,
419.0187988,-0.0006918982253,
418.0174866,-0.000977647258,
417.0159607,-0.0008648685762,
416.0143433,-0.0008583582821,
415.0125732,-0.00107552344,
414.0105896,-0.0008743238868,
413.0083923,-0.0009112131665,
412.006073,-0.0008437871584,
411.0036316,-0.0007270456408,
410.0009766,-0.0008554647211,
408.9981384,-0.0008777856128,
407.9951477,-0.000740483636,
406.9920349,-0.0006575233419,
405.9886475,-0.0007778494037,
404.985199,-0.0007466339739,
403.9815369,-0.0006499242736,
403.0163269,-0.0008012594772,
402.0123596,-0.0007356253336,
401.0082092,-0.0007014089497,
400.0039368,-0.0007419307949,
398.9994507,-0.0006603664369,
397.994812,-0.0006290908786,
396.9900513,-0.0006326062721,
395.9851074,-0.0006680170191,
395.0186462,-0.0004846771772,
394.0133972,-0.0004323392641,
393.0079651,-0.0004390111426,
392.0023804,-0.0004190986219,
390.9966431,-0.0004906759714,
389.9907532,-0.0003111413971,
388.9846802,-0.0004094265169,
388.0171509,-0.0001194731958,
387.0107727,-0.0002977418771,
386.0042419,-0.0002305310045,
384.9975586,-1.527245331E-005,
383.9907227,-0.0001023410587,
382.9837036,-8.893507766E-005,
382.0152893,0.0001358967129,
381.0080261,7.551593444E-005,
380.0005493,0.0003208456328,
378.9929504,0.0002231166873,
377.9851685,0.0003203534288,
377.0159912,0.0004229496408,
376.0079346,0.0005246370565,
374.9997253,0.000684550032,
373.991333,0.0008244217606,
372.9828186,0.0009348936146,
372.0129395,0.0009317287477,
371.0041199,0.0009641828365,
369.9951172,0.001176063204,
368.9859924,0.001354314853,
368.0155334,0.001040956471,
367.0061035,0.001413003774,
365.9965515,0.001557760523,
364.9868164,0.002133654663,
364.0157776,0.001673538354,
363.0057678,0.002105248859,
361.9956055,0.001994114835,
360.9852905,0.001955863088,
360.0137329,0.002423983766,
359.0031128,0.002503957832,
357.9924011,0.002760849427,
356.9815063,0.002612930723,
356.0093384,0.002849171637,
354.9981689,0.003016668139,
353.9868774,0.003399700159,
353.0143127,0.003105381038,
352.0027161,0.003361428622,
350.9909973,0.003848539433,
350.0180054,0.003584452439,
349.0059814,0.003868727712,
347.9938049,0.003878156189,
346.9815063,0.004361062311,
346.0080261,0.004788073245,
344.9954529,0.004914349876,
343.9827271,0.005025631282,
343.0088196,0.005345888436,
341.9957886,0.005617631134,
340.982666,0.006236645859,
340.0083923,0.006315565202,
338.9949951,0.006562843453,
337.9814453,0.007246638183,
337.0067139,0.007590243593,
335.9928894,0.008077059872,
335.0179749,0.008869783953,
334.0039063,0.009626823477,
332.9896545,0.009997958317,
332.0143127,0.01019457635,
330.9998474,0.01081901323,
329.985199,0.01198183279,
329.009491,0.01253087912,
327.9945984,0.01331870351,
327.0186157,0.01429775171,
326.003479,0.01488386374,
324.9882202,0.01591821946,
324.0118713,0.01681294851,
322.9963684,0.01795315184,
321.9806519,0.01868110336,
321.0039368,0.01959162205,
319.9880066,0.0211721193,
319.0110474,0.02195283771,
317.994873,0.02303656004,
317.0176392,0.02367231436,
316.0012207,0.02485297993,
314.9846497,0.02598247118,
314.0070801,0.02674221434,
312.9902344,0.02780794166,
312.0124207,0.02828249335,
310.9953613,0.02924462035,
310.0173035,0.02986854501,
308.9999695,0.03039776906,
307.9825745,0.03085428849,
307.0041504,0.0315297693,
305.9864502,0.03213067353,
305.007782,0.03247895464,
303.9898987,0.0329968743,
303.0109863,0.03351387754,
301.9927979,0.03370546177,
301.0136414,0.03386357799,
299.9953003,0.03433989733,
299.0159302,0.03465221822,
297.9972839,0.03492879495,
297.0176697,0.035049472,
295.9987793,0.03536679968,
295.0189819,0.03566459939,
293.9998779,0.03572465852,
292.9806213,0.03613288328,
292.0004578,0.03650246561,
290.9810181,0.03684590384,
290.0006104,0.03708427027,
288.9809265,0.03747769073,
288.0003052,0.03797870129,
286.9803772,0.03830334544,
285.9995728,0.03868066892,
285.0186462,0.03920201957,
283.9983521,0.03990951926,
283.0172119,0.04054581001,
281.9967041,0.04085659981,
281.0153503,0.04132604599,
279.9946289,0.04221414402,
279.0130615,0.04308144748,
277.9920959,0.04377998039,
277.0102844,0.04460557923,
275.9891052,0.04534363747,
275.0071411,0.04637912288,
273.9857178,0.04748513922,
273.003479,0.04827925563,
271.9819031,0.04873160645,
270.9994812,0.05069886521,
270.0169373,0.05189969763,
268.9950256,0.05236935616,
268.0122986,0.05286829174,
266.9901733,0.05316330492,
266.0072021,0.05136367306,
264.9848328,0.05288562924,
264.001709,0.05623558164,
263.0184326,0.05182983726,
261.9957886,0.06047765166,
261.0123596,0.05669765547,
259.9894409,0.0520548597,
259.0057983,0.05994071811,
257.9826965,0.05898672342,
256.9988708,0.03372443095,
256.0149231,-0.04869958013,
254.9915466,0.05202883109,
254.0074005,0.006816993933,
252.9838104,0.02149023302,
251.9994507,0.007681819145,
251.0150604,0.04200405255,
249.9911652,0.04135628417,

sample15,
sample15
Collection Time: 21/05/2023 6:02:28 PM
Operator Name  :
Scan Version 5.0.0.999
Parameter List :
Instrument  Cary 60
Instrument Version  2.00
Start (nm)  800.0
Stop (nm)  250.0
X Mode  Nanometers
Y Mode  Abs
UV-Vis Scan Rate (nm/min)  600.000
UV-Vis Data Interval (nm)  1.00
UV-Vis Ave. Time (sec)  0.1000
Beam Mode  Dual Beam
Baseline Correction  On
Baseline Type  Baseline correction
Baseline File Name
Baseline Std Ref File Name
Cycle Mode  Off
Method Log     :
Method Name    :
Date/Time stamp: 21/05/2023 12:42:22 PM
Method Modifications:
UVVIS SAT Changed: 21/05/2023 2:04:27 PM, Old:0.0125, New:0.1000
Common SAT Changed: 21/05/2023 2:04:27 PM, Old:0.0125, New:0.1000
Common Interval nm Changed: 21/05/2023 2:04:37 PM, Old:     5.00, New:     1.00
Baseline Correction Changed: 21/05/2023 2:04:37 PM, Old:0, New:1
Storage Changed: 21/05/2023 2:04:37 PM, Old:1, New:0
X Stop nm Changed: 21/05/2023 2:14:10 PM, Old:  200.0, New:  250.0
X Start nm Changed: 21/05/2023 2:14:26 PM, Old:  800.0, New:  500.0
X Start nm Changed: 21/05/2023 2:16:42 PM, Old:  500.0, New:  800.0
X Start nm Changed: 21/05/2023 2:56:54 PM, Old:  800.0, New:  550.0
X Start nm Changed: 21/05/2023 3:10:37 PM, Old:  550.0, New:  800.0
End Method Modifications
<Current Wavelength> , 251.0

