sample4,,
Wavelength (nm),Abs,
800.0118408,0.0003078673617,
799.0057983,0.0008236696012,
797.9992065,0.0006206451799,
796.9923096,-0.0001537354401,
795.9850464,0.0008717559977,
795.012085,0.0004689185298,
794.0039673,0.0006922762841,
792.9954224,5.345781392E-005,
791.9866333,0.0002166937193,
791.012085,0.0002785446704,
790.0024414,0.0005618817522,
788.9923096,0.0001879210031,
788.0167236,0.0009091601823,
787.0057983,0.0002744520898,
785.9945679,0.0001743511093,
784.9828491,-0.0004888143158,
784.0057373,3.38601676E-005,
782.9932861,0.0001702595036,
782.0153198,-0.0005816304474,
781.0021362,0.0003253013419,
779.9885254,-0.0002049167524,
779.0094604,8.468125452E-005,
777.9950562,0.0002614234108,
777.0152588,-1.076842909E-005,
776.000061,5.024757047E-005,
774.9845581,0.0001554212795,
774.0036011,0.001125918818,
772.9872437,0.0004941594088,
772.0056152,0.0003585650993,
770.9885254,0.0006088762893,
770.0061035,0.000295770209,
768.9882202,0.0003940078022,
768.0050659,-0.0003090202808,
766.9864502,-0.0001526486158,
766.0025635,-0.0006368453614,
764.9831543,0.0001038669216,
763.9984741,0.0008599024732,
763.0134888,0.0003634357126,
761.992981,0.0005977039691,
761.0072632,0.001019134652,
759.9859009,0.0006261149538,
758.9995117,0.0009725367418,
758.0126953,0.000577641069,
756.9902954,0.000488069345,
756.0027466,0.0003449898504,
755.0148926,0.0005779261701,
753.991333,0.0005007938016,
753.0027466,0.0005019600503,
752.0137939,0.0003426064504,
750.9891357,0.0003212082956,
749.9993896,0.0003236174816,
749.0093384,0.0001292678789,
747.9835205,0.0002905895235,
746.9927368,0.000269142125,
746.001709,0.0001222766441,
745.0101929,0.0006896835985,
743.9829102,0.0006726238644,
742.9907227,0.0006324403221,
741.99823,0.0004376933502,
741.0053711,-0.0001229409536,
740.012085,9.19825834E-005,
738.9830322,-0.000258575601,
737.9890747,0.0006524019991,
736.994751,0.0006658572238,
736.0001221,-4.938761776E-005,
735.005127,0.0001694826205,
734.0098267,0.000302893779,
733.0140991,0.0002405731502,
731.9824829,0.0001669189078,
730.986084,0.0003040076408,
729.9893799,0.0004760708252,
728.9923096,0.0003598345502,
727.994812,-4.193324276E-005,
726.9970703,-3.075144195E-005,
725.9990234,0.0005492591299,
725.0005493,0.000638843514,
724.001709,0.0003946814395,
723.0025635,0.00066334242,
722.0031128,-4.488394916E-005,
721.0032349,0.0003662337258,
720.0031128,0.0003897327697,
719.0026245,9.234506433E-005,
718.00177,0.0004045530804,
717.0005493,0.0003739543317,
715.9990234,0.0002769646235,
714.9971924,0.0002698155877,
713.9949951,0.000115673909,
712.9924927,0.0005604820908,
711.989624,-8.256838919E-005,
710.9863892,0.0002139484423,
709.9827881,0.0003381764982,
709.0148926,0.0005939971888,
708.0106201,0.0001677216787,
707.0061035,0.0002986714244,
706.0012207,-2.981961188E-005,
704.9960327,0.0006094725104,
703.9904785,0.0004744382168,
702.9846802,9.255219629E-005,
702.0143433,0.0003962101182,
701.0078125,0.0003916241403,
700.0009766,0.000497917179,
698.9937744,0.0007181265391,
697.9863281,0.0003195244644,
697.0144653,0.0001791678515,
696.0062866,0.0008656087448,
694.9978027,0.0004074031895,
693.9890137,0.0003866754705,
693.0159302,0.0006087207585,
692.0064697,0.0001180042746,
690.9967041,0.001103184419,
689.9865112,0.0004439382174,
689.012207,0.0003919350565,
688.0014038,6.686860434E-005,
686.9903564,0.0004141658137,
686.0151367,0.0001576741633,
685.003418,0.0002874811471,
683.991333,-0.000229754849,
683.0151367,9.95429582E-005,
682.0025635,0.000399656099,
680.989502,0.000137061943,
680.0123901,0.0002149067004,
678.9987183,0.0003202757216,
677.9848633,0.0003871677618,
677.0067749,0.0002547667536,
675.9921875,0.0002140002471,
675.0136108,0.0001834149298,
673.9983521,-1.434058959E-005,
672.9828491,-8.971150237E-005,
672.0032959,0.0006002701703,
670.9871826,0.0006195305032,
670.007019,4.522514064E-005,
668.9902954,0.0003503266489,
668.0095215,0.0005295872688,
666.9921265,3.818348341E-005,
666.0108032,-7.946265396E-005,
664.9927368,4.897901454E-005,
664.0108032,0.0005609227228,
662.9921875,0.0007035288727,
662.0096436,0.000178805305,
660.9904175,0.0004734016547,
660.0073242,0.0003064944467,
658.9874878,0.000174195724,
658.0037842,0.0004302566522,
656.9832764,0.0002189728257,
655.9989624,0.0003927123325,
655.0144043,0.00071620784,
653.993042,0.0006320514367,
653.0078125,0.0007395701832,
651.9858398,0.0003233066236,
651.0001221,0.0006659609498,
650.0140381,0.0002826113778,
648.9911499,0.0006603610236,
648.0045776,0.0005646551144,
647.0176392,0.0007241420681,
645.9938965,0.0001431988931,
645.0064087,0.0002518399269,
643.9819946,0.0005715757143,
642.9939575,0.00013276354,
642.0056152,7.585251296E-005,
641.0169678,0.0004153318005,
639.991394,0.0002572532685,
639.0021973,0.0007123185205,
638.0126953,0.0001146640861,
636.9862671,0.0001016660972,
635.9962158,0.0004187520535,
635.0059204,4.657135287E-005,
634.0152588,3.51804556E-005,
632.9877319,0.0003348346218,
631.996521,0.0002014395432,
631.0050049,0.0005801553489,
630.0133057,0.0003508447844,
628.9845581,0.0003577619791,
627.9922485,0.0002456237271,
626.9996948,-3.478934741E-005,
626.0068359,0.000510149519,
625.0136719,0.0002365327236,
623.9835205,0.0007242457941,
622.9898682,0.0002504153817,
621.9958496,0.0001496466721,
621.0016479,0.0002578748972,
620.0071411,0.0004869031545,
619.0123291,0.000351855153,
618.0172729,0.0005273583811,
616.9851074,-2.324497837E-005,
615.989563,-0.0001931181469,
614.9936523,0.0002195167035,
613.9975586,2.749176929E-005,
613.0010376,0.0003197576152,
612.0043945,0.0002946822788,
611.0074463,0.0002080176782,
610.0102539,0.0004124298284,
609.0127563,0.0003739284293,
608.0150146,0.000173496519,
607.0170288,0.000487784273,
605.9816895,0.0003289540182,
604.9831543,0.0004145544954,
603.984375,0.0004283651069,
602.9852295,0.0003413629602,
601.9859009,0.0006517279544,
600.9862671,0.0006836426328,
599.9863892,6.233788736E-005,
598.9862061,5.949003025E-005,
597.9858398,0.0002810054284,
596.9852295,0.000383462786,
595.9841919,0.0005848729052,
594.9830322,0.0002461158438,
593.9815674,0.0004344543559,
593.0169678,5.59140517E-006,
592.0150146,0.0003337465751,
591.0127563,0.0004021693603,
590.0102539,0.0003464406182,
589.0075684,0.0004080768558,
588.0044556,0.0006512354012,
587.0012207,0.0004941335064,
585.9977417,0.0003691872407,
584.9938965,0.0003609485866,
583.9898682,0.0003026088234,
582.9855957,0.0001581402757,
582.0182495,0.0004534222535,
581.0134277,0.0001112203608,
580.0083618,0.000221174254,
579.0030518,0.0003038781288,
577.9975586,0.0003064685443,
576.9916992,0.0004627510498,
575.9856567,0.0003601713688,
575.0166016,-1.351226547E-005,
574.0100708,0.0003479950246,
573.0032349,0.0004306712362,
571.9962158,0.0002210706589,
570.9888306,0.0003159496118,
570.0186157,0.0004077141057,
569.0108032,0.0001075954133,
568.0027466,0.0003952773695,
566.9943848,0.0004311376542,
565.9858398,0.0005706685479,
565.0144043,0.0003594200534,
564.0053711,0.000101303609,
562.9960327,0.0005453972844,
561.9865723,0.000302893779,
561.0140991,0.0002279857872,
560.0041504,0.0002899937681,
558.9938354,0.0007085070829,
557.9833374,0.0003299643286,
557.0099487,0.0002684945939,
555.9990234,0.0004475918831,
554.987793,0.0003745243303,
554.0137939,0.0006836685352,
553.0020142,0.0004290906363,
551.9900513,0.0004252298095,
551.0153809,-3.442697198E-005,
550.0029297,0.0002078881807,
548.9902954,0.0003052510438,
548.0148315,0.0001919609931,
547.001709,0.0003863645834,
545.9882813,0.0004627251183,
545.012207,0.000250752084,
543.9983521,0.0001647177705,
542.984314,0.0002903564018,
542.0074463,0.0003961841867,
540.9929199,0.0003440054134,
540.015686,0.0003910282103,
539.0006714,0.0003524250933,
537.9854126,0.0003143435169,
537.0075073,0.0004458298208,
535.9917603,0.0005385288969,
535.0134277,0.000387245469,
533.9971924,0.000388800021,
533.0184937,0.0003589277912,
532.0018311,0.0004616626829,
530.9848633,0.0002390968293,
530.0054321,0.0003282545658,
528.9880981,0.0004189334286,
528.0081787,0.0003593941219,
526.9904175,0.0003587205429,
526.0100708,0.0004370455572,
524.9918213,0.0004190888721,
524.0111084,0.0004386002838,
522.9923706,0.0003312336921,
522.0111694,0.0002303167421,
520.9920044,0.0004231051134,
520.010376,0.0004389889655,
518.9907837,0.0004124557308,
518.008728,0.0003616739996,
516.9886475,0.0006746461149,
516.0061035,0.0003579951299,
514.9856567,0.0002511923958,
514.0027466,0.0003171671124,
512.9818115,0.0003445753537,
511.9985046,0.0004254630185,
511.0149231,0.0002542228322,
509.9933472,0.0004221204726,
509.0093079,0.0003265448031,
507.9872742,0.000343798165,
507.0028992,0.0002182476601,
506.0182495,0.0003715189523,
504.9956055,0.0001103917966,
504.0105896,0.0005182355526,
502.9874573,0.0004015215964,
502.0020447,0.000558227126,
501.0163574,0.0003515183635,
499.9925842,0.0004368382506,
499.0065613,0.0001404799841,
497.9823303,0.0004162646073,
496.9958496,0.0005159289576,
496.0091553,0.0005114972009,
494.9843445,0.0004489911662,
493.9972839,0.0003522696497,
493.0099487,0.000523315277,
491.9844666,0.000554416969,
490.9967041,0.000375353382,
490.0088196,0.0004102533276,
488.9827576,0.0004845449002,
487.9944458,0.0004981245147,
487.0059204,0.0006609832053,
486.0172729,0.0005472893245,
484.9903259,0.0005873094779,
484.0012207,0.0005247666268,
483.0119324,0.000486358942,
481.984375,0.0005019859527,
480.9946899,0.0005774337333,
480.0047913,0.0006732979673,
479.0146179,0.0004826271906,
477.9862671,0.000619634171,
476.9957275,0.0005894868518,
476.0050964,0.0006463355967,
475.0141907,0.000540317269,
473.9849854,0.0007044363883,
472.9937744,0.0007632969064,
472.0022888,0.0006316366489,
471.0105896,0.001064024866,
470.0187988,0.0008530291379,
468.9886169,0.001012414461,
467.9963074,0.001115459832,
467.0039368,0.00109454256,
466.0112915,0.001232781098,
465.0185242,0.001331750187,
463.9872742,0.001263466431,
462.9940796,0.001526249107,
462.0006714,0.001619387069,
461.0071411,0.001758104656,
460.0133362,0.002174003283,
458.9811707,0.002250444843,
457.98703,0.002628243761,
456.9927063,0.003054830944,
455.9981689,0.003205925226,
455.0035095,0.003663988085,
454.0086365,0.004158416297,
453.0135498,0.004520301707,
452.0182495,0.004904820118,
450.9845886,0.005729591474,
449.9889526,0.00643682247,
448.9931335,0.007106577512,
447.9971313,0.00780954631,
447.0009155,0.00848300755,
446.0046082,0.009211556055,
445.0080566,0.01035342459,
444.0113831,0.01127157826,
443.0144348,0.01218552701,
442.0173645,0.0131073799,
440.98172,0.01399448607,
439.9842834,0.01512387395,
438.9866333,0.01618728228,
437.9888306,0.0170859322,
436.9908752,0.01813559234,
435.9926758,0.01914829761,
434.9943542,0.02045433968,
433.9958191,0.02138324454,
432.9971313,0.0222626403,
431.9981995,0.02338289469,
430.9992065,0.02444609627,
430,0.02538860962,
429.0005798,0.02645561099,
428.0009766,0.02730333619,
427.0012512,0.02832404897,
426.0013733,0.02945851721,
425.0012817,0.03059617803,
424.000946,0.03149881586,
423.0004883,0.03264695033,
421.999939,0.03382487595,
420.999115,0.03476939723,
419.9981689,0.03609316051,
418.9970093,0.03728626668,
417.9957275,0.03851900995,
416.9942932,0.03996068612,
415.9926147,0.04119985551,
414.9907837,0.04243075475,
413.9888916,0.0437646322,
412.9867249,0.04509397596,
411.984375,0.04646009579,
410.9819031,0.04752759263,
410.0178833,0.04877695814,
409.0150452,0.05001058802,
408.0120544,0.05116192624,
407.0089417,0.05247797444,
406.0055847,0.05365084857,
405.0021362,0.05501143634,
403.9985046,0.05592469499,
402.9947205,0.0567804575,
401.9907227,0.05776879191,
400.9866028,0.05888073146,
399.9822998,0.05938462541,
399.0164795,0.06018646061,
398.0119019,0.06057555228,
397.0071106,0.06095686182,
396.0021362,0.06133761257,
394.9970398,0.06161188707,
393.9917908,0.06166863069,
392.9863892,0.06183021888,
391.9808044,0.0619962588,
391.0137634,0.06218300015,
390.0078735,0.06208593026,
389.0018311,0.06221642718,
387.995636,0.06229204312,
386.9892578,0.06229646504,
385.9827271,0.06255113333,
385.0147705,0.06256267428,
384.0079346,0.0628041029,
383.0009155,0.06296015531,
381.9938049,0.06326177716,
380.9864807,0.0631352514,
380.0177917,0.06287530065,
379.0102234,0.06248115376,
378.0024414,0.06259325892,
376.9945374,0.06182663888,
375.9864807,0.06137413532,
375.0170288,0.06028057635,
374.0086365,0.0596550554,
373.0001526,0.05864734203,
371.9914856,0.05759061873,
370.982666,0.05689591542,
370.0125122,0.05557760596,
369.0033875,0.0544994995,
367.9941406,0.05338310823,
366.9847107,0.05259603262,
366.0139465,0.05135656521,
365.0042725,0.05100044236,
363.9943848,0.05001244694,
362.984375,0.04937217757,
362.0130615,0.0487498492,
361.0028076,0.04764127731,
359.9923401,0.04713010043,
358.981781,0.04597272351,
358.0098877,0.04530094191,
356.9990234,0.04424148053,
355.9880066,0.04333847761,
355.0157471,0.04176368192,
354.004425,0.04058676586,
352.9929504,0.03952154517,
351.9813843,0.03854958713,
351.0085754,0.03773631155,
349.9966736,0.03679515794,
348.9846802,0.03648306802,
348.0114441,0.03568185493,
346.9991455,0.03565257415,
345.9867249,0.03559247032,
345.013092,0.03581744432,
344.0003662,0.03622566909,
342.9875488,0.03721894324,
342.0135193,0.03876058757,
341.0003662,0.04105236381,
339.9870911,0.04467945546,
339.0126953,0.04994587973,
337.999176,0.0571314618,
336.9854736,0.06722417474,
336.0106506,0.08124642074,
334.9967346,0.1014046967,
333.9826355,0.127032876,
333.0074463,0.1546477377,
331.9931335,0.188614741,
331.0176392,0.2258820087,
330.0030212,0.2656761706,
328.9882813,0.2969071567,
328.0124512,0.3140888512,
326.9974365,0.3200787902,
325.9822998,0.3125741184,
325.006073,0.2966074944,
323.9906921,0.2827101946,
323.0142212,0.2742381096,
321.9985657,0.2742710114,
320.9827881,0.2821174264,
320.0059204,0.2963312566,
318.9898682,0.3147155344,
318.0127869,0.3350735009,
316.996521,0.360522747,
316.019165,0.3913989365,
315.002594,0.4204862118,
313.9859314,0.445972234,
313.0082397,0.4656702578,
311.9913025,0.4758004248,
311.0133667,0.4758055508,
309.9961548,0.469538033,
309.0180054,0.4606021941,
308.0005798,0.4538879395,
306.9830322,0.453341037,
306.0044861,0.4608623385,
304.9866943,0.4798096716,
304.0079346,0.5066689253,
302.9898987,0.5454538465,
302.0108643,0.5881364942,
300.9926147,0.6442896724,
300.0133972,0.7021631598,
298.9948425,0.7558863759,
298.0153809,0.7902783155,
296.9966431,0.8053796291,
296.0169678,0.7987046838,
294.9979553,0.7721773982,
294.0180054,0.7430904508,
292.9987793,0.7152756453,
292.0186157,0.6984865665,
290.9992065,0.6938068867,
290.0187988,0.6995279789,
288.999115,0.713804543,
288.0184937,0.7292613983,
286.9986267,0.7446500063,
286.0177917,0.7528445125,
284.9976196,0.7510868311,
284.016571,0.7417943478,
282.9962463,0.7335779667,
282.0149841,0.7257484794,
280.9943848,0.7240928411,
280.0129089,0.7361400127,
278.9920654,0.7481616139,
278.010376,0.7735637426,
276.9893188,0.8015348911,
276.0074463,0.8357287645,
274.986145,0.8828328252,
274.0040283,0.9342557788,
272.9825745,0.9914063215,
272.0002747,1.079151034,
271.0178223,1.153092027,
269.9960022,1.310799003,
269.0133667,1.4266361,
267.9913635,1.585754752,
267.0085449,1.937310696,
265.9862671,1.975664854,
265.0032349,1.928069472,
263.9808044,1.445940256,
262.9975586,1.430892825,
262.0142212,1.201617122,
260.9914246,0.8868646026,
260.0079041,0.6698946953,

sample4,
sample4
Collection Time: 10/08/2023 2:58:59 PM
Operator Name  :
Scan Version 5.0.0.999
Parameter List :
Instrument  Cary 60
Instrument Version  2.00
Start (nm)  800.0
Stop (nm)  260.0
X Mode  Nanometers
Y Mode  Abs
UV-Vis Scan Rate (nm/min)  600.000
UV-Vis Data Interval (nm)  1.00
UV-Vis Ave. Time (sec)  0.1000
Beam Mode  Dual Beam
Baseline Correction  On
Baseline Type  Baseline correction
Baseline File Name
Baseline Std Ref File Name
Cycle Mode  Off
Method Log     :
Method Name    :
Date/Time stamp: 10/08/2023 1:47:53 PM
Method Modifications:
UVVIS SAT Changed: 10/08/2023 2:00:00 PM, Old:0.0125, New:0.1000
Common SAT Changed: 10/08/2023 2:00:00 PM, Old:0.0125, New:0.1000
Common Interval nm Changed: 10/08/2023 2:00:08 PM, Old:     5.00, New:     1.00
Baseline Correction Changed: 10/08/2023 2:00:08 PM, Old:0, New:1
Storage Changed: 10/08/2023 2:00:08 PM, Old:1, New:0
X Stop nm Changed: 10/08/2023 2:55:28 PM, Old:  200.0, New:  260.0
End Method Modifications
<Current Wavelength> , 265.0

